AF3,F7,F3,FC5,T7,P7,O1,O2,P8,T8,FC6,F4,F8,AF4,Adjusted_p,eyeDetection
0.0007644520113248641,0.01692365356528932,0.03973760119285081,0.00018912800991562466,0.036825475020803244,0.0003609071055079803,0.00025416429985165905,0.00195593491835129,0.0007740888847338922,0.035612464399298355,0.018873562524523855,0.030448987678349,0.0021346891967755854,0.00030266612801152775,0.814842225064413,0
0.0007633835964366411,0.01685745017872042,0.039794103107923307,0.00018918491971753218,0.036691728294421355,0.0003610103386701662,0.0002542300286202018,0.0019013753255035894,0.0007710402053512595,0.03543911085363756,0.018801324036904,0.030433631907725665,0.0021332439328613194,0.00030169146250698224,0.815307491811,0
0.0007640951004945249,0.01688688986255258,0.03981281478109666,0.00019004303026001957,0.036608156953819755,0.00036039888070952696,0.00025416429985165905,0.0016706888916668942,0.0007702077645269235,0.03537118096551603,0.018780799452677754,0.030472171881054805,0.0021313200425858354,0.00030220428651091225,0.8156248638066761,0
0.0007643338135823492,0.01696041726802606,0.039825411528396366,0.00018998612045811208,0.0367168159873115,0.0003601943996382743,0.0002542300286202018,0.0016841963636825964,0.0007728429262273373,0.03556717780721733,0.018863300232410746,0.030557080259795543,0.002133004619680711,0.0003029220401850289,0.8150480866047678,0
0.0007637381896641859,0.01696041726802606,0.03977526913623248,0.00018947058460553836,0.0367836078969541,0.0003610103386701662,0.0002540353703441327,0.0016026218268034675,0.0007710402053512595,0.035695391795186986,0.01890455062227722,0.030564908691878032,0.0021332439328613194,0.0003031269698552154,0.8149375671712898,0
0.0007625515770334481,0.01685745017872042,0.039674862053387216,0.00018969933969163708,0.0367502119421328,0.00036111158657923316,0.00025371051854575753,0.0013173758001190719,0.0007688212640630136,0.035529537003409724,0.01884257442677049,0.03045681611043147,0.002131080729405226,0.000302255269014227,0.8158019422006962,0
0.0007621946662031091,0.016805894829960696,0.039630956885614445,0.00018952749440744585,0.0367168159873115,0.0003606033617807796,0.0002532567372398561,0.001290360856087668,0.0007714564257634275,0.03543911085363756,0.018667310575191408,0.030286848806179156,0.00212963546549096,0.0003011276559997375,0.8163948993991322,0
0.0007636199919216711,0.01688688986255258,0.039605885689532494,0.00018855556426114342,0.03672512424924266,0.00036029763280046,0.0002529331494562606,0.0012630810596638176,0.0007696537048873495,0.03549189619960213,0.018564083989818188,0.030240630947538365,0.0021281902015766936,0.000301332585669924,0.8164578251714762,0
0.0007637381896641859,0.01694576923021689,0.03958081449345054,0.00018815496389085342,0.036741903680201644,0.0003605001286185939,0.00025345139551592526,0.0010866893662823767,0.0007648023046286385,0.0354842504113287,0.01868783515941767,0.030348723528984926,0.002130597410628702,0.000302255269014227,0.816360514468156,0
0.0007637381896641859,0.01695309324912148,0.039587051717841666,0.00018844062877885969,0.03672512424924266,0.0003601943996382743,0.0002536460537919944,0.0011001968382980786,0.0007666050255047166,0.03546925290356162,0.01890455062227722,0.03041044770501986,0.002135411828732719,0.00030261414585128525,0.8160796324426753,0
0.0007637381896641859,0.01694576923021689,0.039536909325677765,0.00018855556426114342,0.03670003655635251,0.00035958492693075386,0.00025299761421002386,0.001290360856087668,0.0007697915441147556,0.03546925290356162,0.018863300232410746,0.030333217211590772,0.002132760614084795,0.0003015375153401105,0.8160921877154963,0
0.0007615990422849458,0.01682786688667445,0.039373885401886376,0.0001877543635205634,0.03665002407766889,0.00035999190382014036,0.00025280295593395466,0.0012765885316795196,0.0007670212459168845,0.03539382426155654,0.01859507208757155,0.030171078339420947,0.0021240984154298095,0.00030035891982230624,0.8169580335668132,0
0.000759580410251015,0.016695316505322837,0.03922957315126834,0.000186495652607786,0.03659154042995744,0.0003606033617807796,0.0002532567372398561,0.001140984106737631,0.0007650806858134003,0.03536368221163248,0.01845059511233186,0.030078492075368526,0.0021207292612400582,0.00030025595515874905,0.8177038143432892,0
0.000759580410251015,0.016768987519010136,0.039279715543432236,0.00018626578164321854,0.0366332446467099,0.0003606033617807796,0.00025345139551592526,0.0013173758001190719,0.0007696537048873495,0.0354239663114806,0.01853309589206483,0.030194262542126753,0.0021226578439308493,0.0003004099023256208,0.8170967293447217,0
0.0007606488251392377,0.01687942223543418,0.03938635985066862,0.00018683822729769967,0.03667511177055904,0.0003609071055079803,0.0002532567372398561,0.001629901623227342,0.0007724267058151693,0.03541646755759705,0.018625858963910946,0.030356401414296578,0.0021233757834726763,0.0003008717438262362,0.8162721514560074,0
0.0007608875382270621,0.016842658532697438,0.039329980234113604,0.00018683822729769967,0.03662493638477875,0.0003609071055079803,0.00025345139551592526,0.0016026218268034675,0.0007697915441147556,0.035408968803713504,0.018636322477438044,0.03027917092086749,0.0021226578439308493,0.00030117863850305217,0.8165196285264904,0
0.0007592234994206758,0.016761663500105547,0.039223335926877226,0.00018626578164321854,0.036608156953819755,0.0003605001286185939,0.0002538407120680636,0.0014124578090138785,0.0007688212640630136,0.03543146506536414,0.018522833599951716,0.03005530787266272,0.0021207292612400582,0.00030025595515874905,0.8172351426699926,0
0.0007585096777599976,0.01673954783517798,0.03924840712295917,0.000186208871841311,0.03667511177055904,0.0003605001286185939,0.0002533869307621621,0.00130386832810337,0.0007690996452477752,0.03543146506536414,0.01842986930669161,0.030047629987351065,0.0021207292612400582,0.0003003079373189915,0.8173753581310048,0
0.0007605306273967229,0.016791103183937707,0.039329980234113604,0.00018643762692740977,0.036691728294421355,0.0003610103386701662,0.0002527384911801915,0.001154491578753333,0.0007660509658651426,0.03538632550767299,0.018491845502198352,0.030209768859520893,0.0021248210473869427,0.00030148653283679574,0.8171916812091184,0
0.0007613626467999158,0.016842658532697438,0.03934881420580443,0.00018626578164321854,0.03668342003249019,0.0003613160676504859,0.00025306334297856665,0.0010594095698585263,0.000764942846585994,0.03529575232351095,0.018646584769551177,0.030294677238261646,0.0021279508883960845,0.00030117863850305217,0.8170726031152683,0
0.0007610057359695768,0.01687209821652959,0.039373885401886376,0.00018638071712550225,0.036741903680201644,0.0003613160676504859,0.00025358158903823123,0.0012087863192085633,0.0007699320860721111,0.03537867971939958,0.01884257442677049,0.03032553932627912,0.0021293961523103505,0.00030143555033348106,0.8164934850112249,0
0.0007633835964366411,0.01697520891404905,0.039417790569659154,0.00018735376315027352,0.03670850772538035,0.00036111158657923316,0.00025351586026968844,0.0013446555965429222,0.0007717321042182398,0.035642606449222416,0.019007777207650435,0.030356401414296578,0.002133004619680711,0.0003033318995254019,0.8157736186933389,0
0.000764927119897718,0.017137198979232816,0.03945533621452334,0.0001882118736927609,0.0365998486918886,0.0003608058575989135,0.0002532567372398561,0.0013446555965429222,0.0007693780264325369,0.035710536337343946,0.018976789109897075,0.030356401414296578,0.002136129768274546,0.000303434864188959,0.8156430894089495,0
0.0007638587050094953,0.017078319611568502,0.03943026501844139,0.00018792620880475464,0.03656645273706729,0.0003609071055079803,0.00025306334297856665,0.0014397376054377288,0.0007717321042182398,0.035612464399298355,0.018822049842544254,0.030310033008884966,0.0021339665648184526,0.0003017944271705393,0.8159674293182495,0
0.000762669774775963,0.016901537900361748,0.0393801226262775,0.00018735376315027352,0.036658332339600044,0.0003608058575989135,0.0002529331494562606,0.0016706888916668942,0.0007763078260221381,0.03567274849914647,0.018822049842544254,0.030294677238261646,0.0021308367238093108,0.00030117863850305217,0.8158277569288255,0
0.0007617195576302549,0.016901537900361748,0.03934881420580443,0.00018695316277998349,0.0367168159873115,0.0003607046096898466,0.00025306334297856665,0.0019013753255035894,0.0007767213437043568,0.03574817714115154,0.018832312134657362,0.030286848806179156,0.00212963546549096,0.0003018963921771687,0.8154934246245795,0
0.0007604101120514136,0.01689421388145716,0.039267241094650004,0.00018655256240969348,0.0365998486918886,0.00036111158657923316,0.00025299761421002386,0.0017792783725773787,0.0007706239849390913,0.03552203824952619,0.01859507208757155,0.030171078339420947,0.0021250603605675517,0.0003013845678301663,0.816413088494321,0
0.0007596986079935299,0.016791103183937707,0.03919826473079528,0.0001861519620394035,0.036482881396465695,0.0003608058575989135,0.0002528686847024975,0.0013311481245272202,0.0007652185250408065,0.0352882535696274,0.018367893111184887,0.030047629987351065,0.0021197673161023165,0.0002994872189813178,0.817748827723652,0
0.000759580410251015,0.016820542867769867,0.03929231229073194,0.00018626578164321854,0.03654136504417715,0.0003601943996382743,0.00025299761421002386,0.001154491578753333,0.0007661888050925486,0.0352882535696274,0.018440131598804744,0.03009384784599186,0.0021202506348788406,0.0002992822893111313,0.8176242952691186,0
0.0007602919143088986,0.01695309324912148,0.0394428617657411,0.00018712500806417474,0.03665002407766889,0.00036039888070952696,0.0002532567372398561,0.00130386832810337,0.000768129365196033,0.03534853766947552,0.018564083989818188,0.030225124630144228,0.0021231364702920673,0.00030071779665936444,0.8167593501174573,0
0.0007602919143088986,0.01691632954638473,0.0394428617657411,0.00018718191786608226,0.03661662812284759,0.0003608058575989135,0.00025299761421002386,0.0012630810596638176,0.0007654969062255684,0.03531839561955146,0.01855362047629109,0.030225124630144228,0.002121935211973716,0.00030071779665936444,0.8169145315605334,0
0.0007591029840753664,0.016798427202842296,0.039373885401886376,0.00018609505223749599,0.036499660827424694,0.0003605001286185939,0.0002527384911801915,0.0010594095698585263,0.0007641104057616581,0.03529575232351095,0.018646584769551177,0.030186584656815084,0.0021231364702920673,0.0003002049726554343,0.8173938067432901,0
0.0007593416971631909,0.01683533451379285,0.039417790569659154,0.0001861519620394035,0.036507969089355864,0.0003601943996382743,0.0002528686847024975,0.001181506522784713,0.0007686834248356072,0.035408968803713504,0.018822049842544254,0.030310033008884966,0.0021284295147573026,0.00030123062066329456,0.8167594473454651,0
0.0007611239337120917,0.01690900552748015,0.03948052970912276,0.000186896252978076,0.0365830692609296,0.0003605001286185939,0.00025358158903823123,0.0015483270863482373,0.0007715942649908335,0.035506893707369216,0.018863300232410746,0.030379585617002384,0.0021293961523103505,0.0003015375153401105,0.8159646590223486,0
0.0007608875382270621,0.01683533451379285,0.03942402779405028,0.00018643762692740977,0.0365998486918886,0.0003610103386701662,0.0002546180811575605,0.0017519985761535284,0.0007722861638578141,0.035529537003409724,0.01879106174479089,0.030302355123573314,0.002126744937662427,0.00030051286698917805,0.8160033389988491,0
0.000759580410251015,0.016754339481200968,0.03931114626242277,0.00018592320695330473,0.03654136504417715,0.00036141731555955277,0.00025429449337396496,0.00161639415121164,0.0007728429262273373,0.03556717780721733,0.018811787550431117,0.03027149303555584,0.0021279508883960845,0.000300103007648805,0.8163641844193731,0
0.0007596986079935299,0.01687942223543418,0.039298549515123064,0.00018609505223749599,0.036499660827424694,0.0003608058575989135,0.00025228470987429007,0.0012630810596638176,0.0007688212640630136,0.03558232234937429,0.018822049842544254,0.030310033008884966,0.002131080729405226,0.0003003079373189915,0.8165857870030593,0
0.0007591029840753664,0.016901537900361748,0.039298549515123064,0.00018609505223749599,0.036499660827424694,0.00035958492693075386,0.0002517019990608623,0.0010729170418742045,0.0007645266261738261,0.035408968803713504,0.018625858963910946,0.030248308832850034,0.0021284295147573026,0.00030000004298524793,0.817194756968521,0
0.0007570843520414356,0.016687992486418255,0.039254644347350286,0.00018580827147102102,0.036507969089355864,0.0003598906559110735,0.0002527384911801915,0.0011137043103137568,0.0007652185250408065,0.03517518412381473,0.018388618916825136,0.03012470993400933,0.0021207292612400582,0.0002996411661481896,0.8180060660688798,0
0.0007579163714446287,0.016710108151345826,0.03929231229073194,0.00018592320695330473,0.03654136504417715,0.00036029763280046,0.00025299761421002386,0.001181506522784713,0.0007670212459168845,0.035197827419855235,0.018409344722465366,0.03014789413671514,0.0021183267446033558,0.0002999490604819332,0.817777209835514,0
0.0007608875382270621,0.01694576923021689,0.0393801226262775,0.000186495652607786,0.03661662812284759,0.00035978742274888774,0.00025312780773232977,0.0013581630685586242,0.0007690996452477752,0.03539382426155654,0.018625858963910946,0.030255986718161685,0.0021240984154298095,0.00030035891982230624,0.8166697916066542,0
0.0007617195576302549,0.01694576923021689,0.03936128865458667,0.0001866663820135084,0.03665002407766889,0.0003605001286185939,0.0002538407120680636,0.0015483270863482373,0.000770348306484279,0.0354842504113287,0.01867757286730454,0.030310033008884966,0.002126988943258342,0.000300922726329551,0.8162617479072585,0
0.0007589847863328518,0.016768987519010136,0.039279715543432236,0.0001861519620394035,0.036524585613218155,0.0003606033617807796,0.0002539051768218267,0.0013989503369981765,0.000768129365196033,0.03537118096551603,0.018584608574044453,0.03027149303555584,0.0021228971571114583,0.0003003079373189915,0.8170494986656236,0
0.0007569638366961264,0.016724756189154994,0.03924840712295917,0.00018603702655711977,0.036407781224891946,0.0003592791979504342,0.00025306334297856665,0.001290360856087668,0.0007689618060203688,0.03524296697754638,0.018605334379684684,0.030178756224732612,0.0021207292612400582,0.0002990263771376301,0.8175575761763623,0
0.0007574389452689804,0.016805894829960696,0.03922957315126834,0.00018632380732359473,0.03654136504417715,0.00035968617483982075,0.0002529331494562606,0.0015213121423168334,0.0007736726643217242,0.03540132301544009,0.018760073647037526,0.03021744674483256,0.0021250603605675517,0.00029959018364487494,0.816768306139544,0
0.0007582709646721735,0.01688688986255258,0.039254644347350286,0.00018603702655711977,0.036691728294421355,0.0003615185634686196,0.0002539051768218267,0.0016026218268034675,0.0007725645450425757,0.035657750991379376,0.019007777207650435,0.030364079299608243,0.0021308367238093108,0.0003008717438262362,0.8157705034260364,0
0.0007596986079935299,0.01687942223543418,0.03933621745850473,0.00018580827147102102,0.03655814447513615,0.0003612128344882999,0.00025429449337396496,0.0014397376054377288,0.0007699320860721111,0.03568789304130344,0.019111003793023655,0.030387263502314053,0.0021334832460419284,0.0003009737088328657,0.8158349146405723,0
0.0007612421314546067,0.016798427202842296,0.039411431046750565,0.00018603702655711977,0.036482881396465695,0.00036039888070952696,0.0002536460537919944,0.0014397376054377288,0.0007709023661238532,0.03563510769533886,0.019028301791876697,0.03040276981970819,0.0021337272516378436,0.0003013845678301663,0.8160340051634749,0
0.00076183775537277,0.01685745017872042,0.039486766933513884,0.00018638071712550225,0.03662493638477875,0.0003607046096898466,0.0002529331494562606,0.0014532450774534307,0.0007700699252995174,0.035665249745262924,0.018997514915537306,0.030526218171778086,0.0021342058779990616,0.00030210232150428294,0.815620384236508,0
0.0007614808445424308,0.016990000560072032,0.039474170186214165,0.000186495652607786,0.03670003655635251,0.0003616198113776865,0.00025319227248609295,0.00130386832810337,0.0007682672044234393,0.035529537003409724,0.018914812914390348,0.03045681611043147,0.002132042674542968,0.0003008717438262362,0.8158667881372198,0
0.0007588665885903367,0.01691632954638473,0.039373885401886376,0.00018598011675521227,0.03667511177055904,0.000362842727298965,0.0002536460537919944,0.0011952788471928852,0.0007679915259686266,0.03533354016170842,0.018615596671797817,0.030155722568797613,0.0021233757834726763,0.00029907735964094476,0.8169827548761543,0
0.0007561318172929333,0.01671743217025041,0.03931114626242277,0.00018557951638492224,0.03661662812284759,0.000362943975208032,0.00025358158903823123,0.0011272117823294587,0.000766326644319955,0.03522032368150587,0.018378356624712006,0.03003212366995691,0.00211688148068909,0.0002980517116330846,0.8178572809514087,0
0.0007570843520414356,0.016710108151345826,0.03936128865458667,0.0001858651812729285,0.036608156953819755,0.0003625369983186454,0.00025416429985165905,0.0012495735876481156,0.000766326644319955,0.03519018163158181,0.018491845502198352,0.03014789413671514,0.0021188053709645742,0.00029835960596682825,0.8174978089293683,0
0.000759580410251015,0.01689421388145716,0.03948052970912276,0.0001866663820135084,0.03673359541827049,0.0003627394941367793,0.0002548127394336296,0.0014667525494691327,0.0007695158656599432,0.03536368221163248,0.018749811354924397,0.03031771089419663,0.0021245817342063333,0.0003007687791626791,0.816235038576063,0
0.0007613626467999158,0.01709311125759149,0.03959964846514137,0.00018758251823637216,0.03675852020406394,0.00036192554035800614,0.0002540353703441327,0.0013989503369981765,0.0007704861457116854,0.03556717780721733,0.018894288330164107,0.030448987678349,0.002129874778671569,0.0003024601986844135,0.8154715887216685,0
0.0007644520113248641,0.017166638663064972,0.03963731640852303,0.00018832680917504465,0.036608156953819755,0.0003608058575989135,0.0002527384911801915,0.0012222937912242653,0.0007690996452477752,0.035544681545566705,0.018914812914390348,0.030464493995743136,0.0021322819877235776,0.0003019993568407258,0.8156719015685767,0
0.0007659978523887353,0.017144666606351215,0.03963731640852303,0.00018866938386495846,0.0365998486918886,0.00036192554035800614,0.00025312780773232977,0.00130386832810337,0.0007686834248356072,0.03553703575729327,0.018883824816636984,0.030364079299608243,0.002132521300904186,0.00030184540967385405,0.8157565893718376,0
0.0007633835964366411,0.017063527965545514,0.03958081449345054,0.0001877543635205634,0.03668342003249019,0.0003637579289868051,0.0002544891516500341,0.0015618345583639152,0.0007711780445786656,0.035665249745262924,0.018976789109897075,0.030394941387625718,0.0021332439328613194,0.0003021533040075977,0.8152974623853224,0
0.0007611239337120917,0.01695309324912148,0.039486766933513884,0.00018626578164321854,0.03656645273706729,0.00036406365796712477,0.0002546180811575605,0.0017249836321221487,0.0007742267239612985,0.035680394287419884,0.019069753403157162,0.03049535608376061,0.002132042674542968,0.0003013845678301663,0.8152494742530231,0
0.0007606488251392377,0.01687209821652959,0.03945533621452334,0.000186495652607786,0.0365496733061083,0.0003638611621489909,0.0002546180811575605,0.0017249836321221487,0.0007731186046821501,0.03563510769533886,0.018976789109897075,0.030418125590331524,0.0021281902015766936,0.0003007687791626791,0.815600184928674,0
0.0007605306273967229,0.01692365356528932,0.03950560090520471,0.00018758251823637216,0.03672512424924266,0.0003637579289868051,0.0002544891516500341,0.0016434090952430198,0.0007706239849390913,0.035642606449222416,0.018914812914390348,0.030387263502314053,0.0021279508883960845,0.00030128160316660925,0.8154913126163217,0
0.0007606488251392377,0.016938445211312308,0.039486766933513884,0.00018706698238379844,0.03673359541827049,0.00036406365796712477,0.0002540353703441327,0.0016569165672587218,0.0007720104854030015,0.03558232234937429,0.01894580101214371,0.030472171881054805,0.0021291521467144358,0.0003008717438262362,0.8154161314152938,0
0.000759580410251015,0.016842658532697438,0.03943662454134998,0.0001861519620394035,0.03655814447513615,0.0003638611621489909,0.0002539051768218267,0.001711211307713976,0.0007722861638578141,0.03546925290356162,0.018811787550431117,0.030425803475643193,0.0021238591022492,0.00029959018364487494,0.8159852830524534,0
0.0007575594606142895,0.01682786688667445,0.03944909899013222,0.00018632380732359473,0.036533056782246005,0.00036213002142925903,0.00025306334297856665,0.0013854428649824745,0.000766326644319955,0.03535618345774893,0.018605334379684684,0.03027149303555584,0.0021190446841451833,0.00029912834214425955,0.8168279473000203,0
0.0007568456389536114,0.01684998255160202,0.03942402779405028,0.000186208871841311,0.036691728294421355,0.00036182429244893937,0.00025228470987429007,0.0010321297734346522,0.0007618914644734123,0.03521282492762232,0.01853309589206483,0.030248308832850034,0.0021188053709645742,0.00029933327181444605,0.817270708313584,0
0.0007585096777599976,0.016842658532697438,0.039392719373577204,0.0001866663820135084,0.03676699137309179,0.0003634522000064855,0.00025299761421002386,0.0012087863192085633,0.0007661888050925486,0.03517518412381473,0.018615596671797817,0.030356401414296578,0.0021183267446033558,0.00029912834214425955,0.8168963924256857,0
0.0007607670228817527,0.01690900552748015,0.039486766933513884,0.00018786818312437842,0.03670003655635251,0.0003627394941367793,0.00025345139551592526,0.001480524873877281,0.0007702077645269235,0.03537118096551603,0.01877033593915064,0.030487678198448945,0.002121451893197192,0.00029953820148463254,0.816038447050793,0
0.0007614808445424308,0.01699732457897662,0.03961212291392362,0.00018815496389085342,0.03662493638477875,0.00036039888070952696,0.0002527384911801915,0.0012630810596638176,0.0007677131447838651,0.035559679053333786,0.018894288330164107,0.030526218171778086,0.002127228256438951,0.0003011276559997375,0.8157635072698357,0
0.0007623128639456239,0.017041555908831763,0.039674862053387216,0.00018798311860666216,0.03661662812284759,0.0003609071055079803,0.0002528686847024975,0.0011952788471928852,0.0007678509840112714,0.03567274849914647,0.019007777207650435,0.03051086240115475,0.0021303580974480927,0.000302255269014227,0.8155157508365525,0
0.0007642156158398344,0.01709311125759149,0.03966238760460498,0.00018832680917504465,0.03654136504417715,0.00036355543316867123,0.0002545536164037973,0.0016706888916668942,0.0007729807654547437,0.03575582292942497,0.019183242280643508,0.03061880443583049,0.0021332439328613194,0.0003021533040075977,0.8146955480791496,0
0.0007635017941791562,0.017070995592663913,0.03964355363291415,0.00018781127332247093,0.03645779370357555,0.00036487761174589775,0.00025578476679919565,0.0018878678534878875,0.0007732564439095564,0.03567274849914647,0.01921423037839687,0.03074240333467119,0.002134928509956195,0.00030164048000366756,0.8145286061252278,0
0.0007606488251392377,0.016938445211312308,0.039649790857305266,0.00018706698238379844,0.036516277351287,0.00036498084490808365,0.00025565583729166935,0.001629901623227342,0.0007714564257634275,0.035544681545566705,0.01908001569527029,0.03074240333467119,0.002131798668947053,0.00030128160316660925,0.81512559519376,0
0.0007599350034785596,0.01687209821652959,0.039605885689532494,0.00018746758275408845,0.0365830692609296,0.00036487761174589775,0.00025520205598576794,0.00161639415121164,0.000772702384269982,0.03559746689153126,0.01894580101214371,0.030611126550518824,0.0021274675696195604,0.00030056384949249263,0.8153999421702566,0
0.0007593416971631909,0.01686477419762501,0.039493004157904986,0.00018712500806417474,0.03656645273706729,0.00036508209281715064,0.0002549429329559356,0.0016434090952430198,0.0007711780445786656,0.035544681545566705,0.018760073647037526,0.030418125590331524,0.0021236197890685915,0.0002992822893111313,0.8159489071752651,0
0.0007576776583568046,0.016798427202842296,0.0393801226262775,0.0001861519620394035,0.03655814447513615,0.00036406365796712477,0.00025396964157558985,0.0012087863192085633,0.0007652185250408065,0.03537118096551603,0.018584608574044453,0.030286848806179156,0.0021207292612400582,0.0002982566413032711,0.8170658136832728,0
0.0007575594606142895,0.01674687185408257,0.03930490903803167,0.00018660947221160103,0.03662493638477875,0.0003617230445398725,0.00025280295593395466,0.0008284582836293609,0.0007625860660703418,0.0354239663114806,0.01855362047629109,0.03023280251545588,0.002121212580016583,0.0002985645356370147,0.8175433770212265,0
0.0007560136195504184,0.016791103183937707,0.039254644347350286,0.00018712500806417474,0.0366666406015312,0.0003613160676504859,0.0002523491746280532,0.0007876710151898086,0.0007635563461220839,0.03549189619960213,0.018564083989818188,0.030186584656815084,0.0021221745251543246,0.000298923412474073,0.817515917852112,0
0.0007533993635983243,0.016813218848865278,0.0392045019551864,0.00018598011675521227,0.036574760998998444,0.000362842727298965,0.00025209005159822093,0.0006790815342793,0.0007623076848855802,0.03526561027358689,0.018481381988671237,0.030109354163385997,0.0021204899480594497,0.0002980517116330846,0.8181369286331976,0
0.0007549452046621954,0.016791103183937707,0.03919202750640416,0.0001858651812729285,0.03656645273706729,0.0003637579289868051,0.0002521557803667638,0.0008149508116136589,0.0007635563461220839,0.035114900023966604,0.018409344722465366,0.03014789413671514,0.0021192886897410984,0.0002978467819628982,0.8182259109647153,0
0.0007580345691871437,0.01687209821652959,0.039273478319041114,0.00018763942803827968,0.036741903680201644,0.00036487761174589775,0.00025306334297856665,0.0013446555965429222,0.0007700699252995174,0.03529575232351095,0.018491845502198352,0.030286848806179156,0.0021195280029217074,0.00029866750030057193,0.8169415371753246,0
0.0007575594606142895,0.016990000560072032,0.0393801226262775,0.00018826878349466843,0.036817003851775394,0.0003662017755762432,0.00025351586026968844,0.0015483270863482373,0.0007721483246304078,0.035514392461252764,0.018584608574044453,0.030310033008884966,0.0021195280029217074,0.00029887242997075826,0.8160994171938669,0
0.0007566069258657873,0.01701197261678579,0.039411431046750565,0.00018792620880475464,0.03677529963502295,0.0003666087524656298,0.00025332246600839897,0.0013989503369981765,0.0007710402053512595,0.035544681545566705,0.018584608574044453,0.03026381515024417,0.0021204899480594497,0.00029917932464757423,0.8162540672633843,0
0.0007593416971631909,0.01702676426280877,0.039474170186214165,0.00018804002840856968,0.036800387327913096,0.0003668132335368825,0.0002537762473143004,0.0015348196143325353,0.0007735348250943179,0.035544681545566705,0.01865684706166431,0.030371757184919912,0.0021245817342063333,0.00029979511331506143,0.8158246899375419,0
0.0007620741508577998,0.017100435276496073,0.039593411240750255,0.00018838371897695214,0.036800387327913096,0.0003661005276671764,0.0002544891516500341,0.0017384911041378264,0.0007746429443734664,0.035695391795186986,0.018935538720030582,0.030572586577189698,0.002131798668947053,0.0003004099023256208,0.8147858588934973,0
0.0007617195576302549,0.017100435276496073,0.03964355363291415,0.00018826878349466843,0.0367836078969541,0.00036498084490808365,0.00025396964157558985,0.0015348196143325353,0.0007699320860721111,0.035823605783156624,0.019100540279496554,0.030657494955930436,0.0021366130870510702,0.0003013845678301663,0.8145790739921576,0
0.0007607670228817527,0.01695309324912148,0.039605885689532494,0.00018781127332247093,0.036741903680201644,0.00036538782179747025,0.00025332246600839897,0.001181506522784713,0.0007654969062255684,0.035657750991379376,0.01894580101214371,0.030587942347813018,0.0021332439328613194,0.00030128160316660925,0.81555880548076,0
0.0007611239337120917,0.01682786688667445,0.03952431257837806,0.00018758251823637216,0.0365830692609296,0.0003655903176156039,0.0002537762473143004,0.0010594095698585263,0.0007653563642682128,0.03537118096551603,0.018749811354924397,0.03047984976636647,0.0021281902015766936,0.00030000004298524793,0.8166428799916439,0
0.0007610057359695768,0.01692365356528932,0.03951807535398694,0.00018792620880475464,0.036574760998998444,0.0003645738680186971,0.00025429449337396496,0.0012360661156324375,0.0007685455856082009,0.035408968803713504,0.018780799452677754,0.03049535608376061,0.0021303580974480927,0.0003003079373189915,0.8162953076993987,0
0.0007605306273967229,0.01705620394664093,0.039593411240750255,0.00018844062877885969,0.03675852020406394,0.00036487761174589775,0.00025416429985165905,0.0014532450774534307,0.0007718726461755954,0.03563510769533886,0.018997514915537306,0.030572586577189698,0.002134928509956195,0.00030128160316660925,0.8151573144159541,0
0.0007604101120514136,0.016982532932953633,0.0396184824368322,0.0001880969382104772,0.03675852020406394,0.0003652865738884033,0.0002539051768218267,0.001494032345892983,0.0007718726461755954,0.03568789304130344,0.01908001569527029,0.030603448665207172,0.0021344451911796706,0.0003006148319958073,0.8150004432081531,0
0.0007591029840753664,0.01682786688667445,0.039593411240750255,0.0001876963378401872,0.03665002407766889,0.00036406365796712477,0.0002538407120680636,0.0015348196143325353,0.0007704861457116854,0.03559746689153126,0.018976789109897075,0.030572586577189698,0.002131080729405226,0.00029989707832169075,0.8154808679565665,0
0.0007580345691871437,0.016805894829960696,0.0395557432973686,0.0001876963378401872,0.03667511177055904,0.00036365668107773817,0.00025312780773232977,0.001629901623227342,0.0007710402053512595,0.03558232234937429,0.01884257442677049,0.03050303396907228,0.0021286735203532173,0.0003002049726554343,0.81564298363947,0
0.0007596986079935299,0.0169309775841939,0.039486766933513884,0.00018786818312437842,0.0367168159873115,0.0003652865738884033,0.00025241490339659604,0.0015483270863482373,0.0007717321042182398,0.035657750991379376,0.01885303794029761,0.030472171881054805,0.0021293961523103505,0.0002999490604819332,0.8155678060104873,0
0.0007612421314546067,0.017100435276496073,0.03946793296182305,0.00018826878349466843,0.03677529963502295,0.00036630302348531017,0.00025319227248609295,0.0014262301334220268,0.0007707618241664978,0.035612464399298355,0.018925276427917467,0.030472171881054805,0.00212963546549096,0.00029923130680781663,0.8154515544775793,0
0.0007592234994206758,0.01703408828171336,0.039486766933513884,0.00018844062877885969,0.0368337832827344,0.000365489069706537,0.0002542300286202018,0.0014124578090138785,0.0007690996452477752,0.03543911085363756,0.01877033593915064,0.03040276981970819,0.0021255436793440755,0.0002984615709734576,0.8158601989584364,0
0.0007568456389536114,0.016842658532697438,0.039411431046750565,0.00018786818312437842,0.0366666406015312,0.00036467511592776404,0.00025409983509789587,0.0013854428649824745,0.0007674374663290525,0.03525811151970334,0.018512370086424597,0.030302355123573314,0.002121212580016583,0.00029800072912977,0.816870850675758,0
0.0007574389452689804,0.01687942223543418,0.03944909899013222,0.00018729573746989716,0.036482881396465695,0.0003645738680186971,0.00025312780773232977,0.0012087863192085633,0.0007667428647321229,0.03522032368150587,0.018584608574044453,0.030387263502314053,0.0021243424210257247,0.00029917932464757423,0.8170349143319997,0
0.0007611239337120917,0.017063527965545514,0.03966238760460498,0.00018844062877885969,0.03662493638477875,0.00036365668107773817,0.00025254383290412234,0.0011001968382980786,0.0007685455856082009,0.03543911085363756,0.01895606330425684,0.030641988638536295,0.002131798668947053,0.00030107667349642275,0.8157446024058175,0
0.0007630266856063021,0.017070995592663913,0.03974383841724193,0.00018952749440744585,0.036741903680201644,0.0003630452231170989,0.00025241490339659604,0.0012360661156324375,0.0007711780445786656,0.0357030375834604,0.019131528377249914,0.030750081219982857,0.0021346891967755854,0.00030117863850305217,0.8148474888271822,0
0.0007599350034785596,0.01690900552748015,0.03963731640852303,0.00018832680917504465,0.03656645273706729,0.00036406365796712477,0.0002526095616726652,0.0013716705405743262,0.0007715942649908335,0.035665249745262924,0.018914812914390348,0.030587942347813018,0.002129874778671569,0.0002996411661481896,0.8155815045367849,0
0.0007568456389536114,0.016798427202842296,0.03956198052175972,0.00018729573746989716,0.036524585613218155,0.0003642681390383775,0.0002528686847024975,0.0014532450774534307,0.0007706239849390913,0.03546925290356162,0.018729085549284163,0.03044130979303733,0.0021245817342063333,0.000298923412474073,0.8162667060070594,0
0.0007589847863328518,0.01683533451379285,0.03961212291392362,0.0001882118736927609,0.03675852020406394,0.00036365668107773817,0.00025280295593395466,0.001494032345892983,0.0007700699252995174,0.035506893707369216,0.01879106174479089,0.03050303396907228,0.002126266311301209,0.00029912834214425955,0.8157398797253119,0
0.0007619559531152849,0.01686477419762501,0.03964355363291415,0.00018855556426114342,0.03679207906598194,0.000364776363836831,0.00025319227248609295,0.001507539817908685,0.0007700699252995174,0.035506893707369216,0.018883824816636984,0.030572586577189698,0.0021286735203532173,0.0002994872189813178,0.8154620373660408,0
0.0007607670228817527,0.016813218848865278,0.03959964846514137,0.00018786818312437842,0.0366332446467099,0.0003655903176156039,0.00025351586026968844,0.001697703835698274,0.0007720104854030015,0.035446609607521114,0.018883824816636984,0.030572586577189698,0.0021293961523103505,0.00030035891982230624,0.8155836562608103,0
0.0007588665885903367,0.01684998255160202,0.03961212291392362,0.00018792620880475464,0.036658332339600044,0.00036416490587619165,0.00025299761421002386,0.001820065641016931,0.0007735348250943179,0.03556717780721733,0.019018039499763568,0.03061880443583049,0.0021322819877235776,0.00030107667349642275,0.8150846260072504,0
0.0007592234994206758,0.01690900552748015,0.039587051717841666,0.00018844062877885969,0.03670850772538035,0.00036406365796712477,0.00025254383290412234,0.001711211307713976,0.0007732564439095564,0.03559746689153126,0.019152254182890148,0.030641988638536295,0.002132760614084795,0.00030046088482893555,0.8149217644467321,0
0.0007598168057360446,0.01685745017872042,0.03943662454134998,0.00018786818312437842,0.03664155290864106,0.00036538782179747025,0.00025267402642642836,0.0016434090952430198,0.0007724267058151693,0.03549189619960213,0.019007777207650435,0.030541724489172223,0.0021284295147573026,0.00029938525397468844,0.8156135770679893,0
0.000759580410251015,0.016820542867769867,0.0393801226262775,0.00018712500806417474,0.036741903680201644,0.00036518334072621736,0.00025228470987429007,0.0015618345583639152,0.000770348306484279,0.035506893707369216,0.018863300232410746,0.030418125590331524,0.0021260269981205997,0.00029953820148463254,0.8159471897622704,0
0.0007587483908478218,0.016813218848865278,0.0393801226262775,0.00018683822729769967,0.0369339711471983,0.0003645738680186971,0.00025209005159822093,0.0013173758001190719,0.0007678509840112714,0.03552203824952619,0.018883824816636984,0.030371757184919912,0.0021281902015766936,0.0002994872189813178,0.8160199123841251,0
0.0007579163714446287,0.016820542867769867,0.03926100387025888,0.00018632380732359473,0.0368337832827344,0.00036498084490808365,0.00025267402642642836,0.0012630810596638176,0.0007671590851442908,0.03539382426155654,0.01885303794029761,0.03031771089419663,0.0021279508883960845,0.0002990263771376301,0.8165009844227415,0
0.0007585096777599976,0.01687209821652959,0.03926100387025888,0.000186495652607786,0.03670850772538035,0.00036508209281715064,0.0002523491746280532,0.0014124578090138785,0.0007675753055564588,0.03539382426155654,0.018811787550431117,0.030333217211590772,0.0021255436793440755,0.00029923130680781663,0.8164523164657176,0
0.0007589847863328518,0.016901537900361748,0.039398956597968326,0.00018758251823637216,0.03686717923755569,0.00036487761174589775,0.0002518309285683886,0.001507539817908685,0.0007682672044234393,0.035514392461252764,0.01890455062227722,0.03047984976636647,0.0021253043661634665,0.00029933327181444605,0.8156698129090243,0
0.0007577958560993195,0.01683533451379285,0.03936128865458667,0.00018723882766798967,0.03685887097562455,0.00036487761174589775,0.0002515718055385563,0.001507539817908685,0.0007697915441147556,0.03553703575729327,0.018894288330164107,0.03049535608376061,0.0021245817342063333,0.00029851355313370006,0.8157559149343627,0
0.0007566069258657873,0.016754339481200968,0.03919826473079528,0.0001858651812729285,0.0365830692609296,0.00036416490587619165,0.0002514416120162503,0.0013989503369981765,0.0007692374844751815,0.0354239663114806,0.018718823257171033,0.030302355123573314,0.0021221745251543246,0.0002978467819628982,0.8168728940812274,0
0.0007573207475264656,0.016768987519010136,0.03918566798349558,0.00018598011675521227,0.03655814447513615,0.00036365668107773817,0.0002515718055385563,0.0011952788471928852,0.000766326644319955,0.03534103891559197,0.018698097451530803,0.03021744674483256,0.002121451893197192,0.00029851355313370006,0.8172905166216611,0
0.0007587483908478218,0.01684998255160202,0.039298549515123064,0.00018655256240969348,0.0367502119421328,0.0003639624100580578,0.00025209005159822093,0.001154491578753333,0.0007660509658651426,0.03540132301544009,0.018822049842544254,0.030340895096902437,0.0021231364702920673,0.0002994362364780031,0.816632519369953,0
0.0007589847863328518,0.016820542867769867,0.03938635985066862,0.00018603702655711977,0.0367168159873115,0.0003643693869474444,0.00025267402642642836,0.0013581630685586242,0.0007668807039595292,0.03533354016170842,0.01884257442677049,0.030433631907725665,0.0021233757834726763,0.00029933327181444605,0.8163567167439763,0
0.0007580345691871437,0.01677631153791472,0.039411431046750565,0.0001858651812729285,0.03661662812284759,0.0003643693869474444,0.00025228470987429007,0.0013854428649824745,0.0007668807039595292,0.03532589437343501,0.018873562524523855,0.03050303396907228,0.0021248210473869427,0.00029887242997075826,0.8163565675318745,0
0.0007576776583568046,0.01686477419762501,0.03940519382235945,0.00018626578164321854,0.03667511177055904,0.00036355543316867123,0.0002518309285683886,0.0012495735876481156,0.0007686834248356072,0.03556717780721733,0.019018039499763568,0.03058026446250135,0.00212963546549096,0.0002994872189813178,0.8158827289412811,0
0.0007587483908478218,0.0169309775841939,0.03942402779405028,0.000186495652607786,0.03680869558984424,0.00036355543316867123,0.0002526095616726652,0.0013989503369981765,0.0007707618241664978,0.035680394287419884,0.019111003793023655,0.030572586577189698,0.002131080729405226,0.0003002049726554343,0.8153099074727561,0
0.0007605306273967229,0.01686477419762501,0.039486766933513884,0.00018638071712550225,0.036817003851775394,0.00036498084490808365,0.00025371051854575753,0.0016434090952430198,0.000770348306484279,0.03558232234937429,0.019121266085136784,0.030603448665207172,0.002130597410628702,0.0003001539901521197,0.8151143064068833,0
0.0007612421314546067,0.01683533451379285,0.039530672101286655,0.00018632380732359473,0.036741903680201644,0.0003659972945049905,0.0002536460537919944,0.0016569165672587218,0.0007718726461755954,0.035665249745262924,0.019152254182890148,0.030680679158636242,0.0021332439328613194,0.00030051286698917805,0.8149641513175695,0
0.0007599350034785596,0.01686477419762501,0.039493004157904986,0.0001861519620394035,0.03673359541827049,0.00036508209281715064,0.00025312780773232977,0.001629901623227342,0.0007738132062790796,0.035710536337343946,0.019131528377249914,0.03061880443583049,0.002133004619680711,0.0003008197616659938,0.8150459209988545,0
0.0007576776583568046,0.016820542867769867,0.039392719373577204,0.0001857513616691135,0.0367502119421328,0.0003638611621489909,0.0002529331494562606,0.0015213121423168334,0.0007706239849390913,0.035514392461252764,0.018966526817783942,0.030487678198448945,0.0021286735203532173,0.00030005102548856256,0.8157870443343056,0
0.0007576776583568046,0.016813218848865278,0.03940519382235945,0.00018609505223749599,0.03670003655635251,0.0003637579289868051,0.00025267402642642836,0.0013716705405743262,0.0007682672044234393,0.03546925290356162,0.018832312134657362,0.03050303396907228,0.002125782992524685,0.00029907735964094476,0.8161519490019605,0
0.0007589847863328518,0.01689421388145716,0.03944909899013222,0.0001866663820135084,0.03668342003249019,0.0003642681390383775,0.00025306334297856665,0.0013989503369981765,0.0007686834248356072,0.035514392461252764,0.018873562524523855,0.030533896057089737,0.0021253043661634665,0.000298923412474073,0.8158965718622195,0
0.0007572025497839505,0.01684998255160202,0.03932362071120501,0.0001857513616691135,0.03662493638477875,0.00036406365796712477,0.0002532567372398561,0.0014124578090138785,0.0007675753055564588,0.03534853766947552,0.01884257442677049,0.030425803475643193,0.0021226578439308493,0.0002987184828038865,0.8164228610325599,0
0.0007547064915743714,0.016680668467513666,0.03919826473079528,0.00018437771527405234,0.03647457313453455,0.0003637579289868051,0.0002529331494562606,0.0013716705405743262,0.0007684077463807945,0.03526561027358689,0.018718823257171033,0.03032553932627912,0.0021202506348788406,0.00029861551814032943,0.8172218010848536,0
0.0007549452046621954,0.016702784132441237,0.03921709870248611,0.0001849501609285336,0.03654136504417715,0.00036447063485651137,0.0002528686847024975,0.0015483270863482373,0.0007714564257634275,0.03546925290356162,0.018780799452677754,0.03040276981970819,0.0021221745251543246,0.00029917932464757423,0.8165875578978847,0
0.0007566069258657873,0.01689421388145716,0.03926100387025888,0.0001857513616691135,0.036741903680201644,0.00036487761174589775,0.00025267402642642836,0.0015891143547877896,0.000770348306484279,0.03559746689153126,0.018966526817783942,0.03051086240115475,0.002126505624481818,0.00029979511331506143,0.8156823491328362,0
0.0007582709646721735,0.01692365356528932,0.03928607506634084,0.00018563642618682976,0.036691728294421355,0.0003639624100580578,0.00025189539332215173,0.0013716705405743262,0.0007677131447838651,0.03549939495348568,0.018925276427917467,0.03051086240115475,0.002126266311301209,0.0002996921486515043,0.8160379019518404,0
0.0007586278755025126,0.01682786688667445,0.039392719373577204,0.00018603702655711977,0.03656645273706729,0.0003632497041883516,0.00025137714726248715,0.0013581630685586242,0.0007688212640630136,0.0354239663114806,0.018863300232410746,0.03051086240115475,0.0021231364702920673,0.00029933327181444605,0.8163060862293963,0
0.0007582709646721735,0.016842658532697438,0.03944909899013222,0.00018580827147102102,0.036691728294421355,0.0003639624100580578,0.0002519611220906946,0.001494032345892983,0.0007702077645269235,0.035408968803713504,0.018966526817783942,0.030572586577189698,0.0021248210473869427,0.0002996921486515043,0.8158196759093115,0
0.0007585096777599976,0.016901537900361748,0.03934245468289584,0.00018489325112662605,0.03670850772538035,0.0003645738680186971,0.0002526095616726652,0.0014532450774534307,0.0007699320860721111,0.03546925290356162,0.0190387653054038,0.03058026446250135,0.0021286735203532173,0.00030000004298524793,0.8157467799344533,0
0.0007575594606142895,0.01686477419762501,0.039267241094650004,0.00018535076129882347,0.036499660827424694,0.0003638611621489909,0.00025254383290412234,0.0012495735876481156,0.0007679915259686266,0.035506893707369216,0.018914812914390348,0.030564908691878032,0.002126744937662427,0.00029933327181444605,0.8163787500266029,0
0.0007549452046621954,0.01674687185408257,0.039254644347350286,0.00018598011675521227,0.03647457313453455,0.00036314845627928463,0.00025176646381462543,0.0010594095698585263,0.0007659104239077871,0.03543146506536414,0.018729085549284163,0.03049535608376061,0.0021207292612400582,0.00029820565879995644,0.8170679088103061,0
0.000754467778486547,0.016673200840395266,0.03916683401180475,0.00018489325112662605,0.0365496733061083,0.000362943975208032,0.000251182488986418,0.001018622301418974,0.0007661888050925486,0.03530339811178436,0.01865684706166431,0.030356401414296578,0.0021185660577839652,0.00029800072912977,0.8175387798667135,0
0.0007557749064625942,0.016665876821490684,0.03904147803139501,0.00018397711490376236,0.036499660827424694,0.0003632497041883516,0.0002518309285683886,0.0012222937912242653,0.0007685455856082009,0.03534103891559197,0.018729085549284163,0.030333217211590772,0.0021221745251543246,0.00029887242997075826,0.8174229236571421,0
0.0007551816001472252,0.016665876821490684,0.03902264405970418,0.0001842638956702373,0.03644117717971325,0.00036365668107773817,0.00025299761421002386,0.0016569165672587218,0.0007715942649908335,0.03549189619960213,0.018832312134657362,0.030387263502314053,0.0021250603605675517,0.00029866750030057193,0.8167504916182955,0
0.0007545882938318564,0.016643761156563106,0.03902264405970418,0.0001838632952999473,0.036449485441644405,0.00036406365796712477,0.00025345139551592526,0.0019286551219274398,0.0007731186046821501,0.03558232234937429,0.01884257442677049,0.030340895096902437,0.0021228971571114583,0.0002976928347960264,0.8164399871079091,0
0.0007562523326382426,0.01671743217025041,0.039003810088013346,0.00018397711490376236,0.03647457313453455,0.0003633509520974185,0.0002524793681503592,0.0016434090952430198,0.0007714564257634275,0.03556717780721733,0.01877033593915064,0.030348723528984926,0.002121451893197192,0.00029815467629664175,0.8167274154735588,0
0.0007572025497839505,0.016813218848865278,0.039085383199167774,0.0001854645809026385,0.036533056782246005,0.00036223126933832575,0.000251182488986418,0.001167999050769011,0.0007672969243716971,0.03546925290356162,0.01877033593915064,0.030433631907725665,0.0021231364702920673,0.0002990263771376301,0.8169815807077012,0
0.0007560136195504184,0.01673954783517798,0.03914812233863139,0.00018563642618682976,0.03654136504417715,0.00036182429244893937,0.00025072870768051654,0.0010729170418742045,0.0007652185250408065,0.03539382426155654,0.018832312134657362,0.03041044770501986,0.0021226578439308493,0.0002987184828038865,0.8171206657412633,0
0.0007552997978897401,0.016687992486418255,0.03907902367625919,0.000184606470360151,0.0364662648726034,0.00036233251724739274,0.0002506642429267534,0.001154491578753333,0.0007657725846803808,0.03527310902747044,0.018729085549284163,0.03031771089419663,0.0021192886897410984,0.00029810369379332707,0.8175562539183758,0
0.0007567274412110965,0.016813218848865278,0.03904771525578612,0.00018443462507595975,0.036482881396465695,0.00036223126933832575,0.00025021046162085195,0.0011137043103137568,0.0007661888050925486,0.03521282492762232,0.018574346281931324,0.030418125590331524,0.0021197673161023165,0.00029851355313370006,0.8175991099171092,0
0.0007583914800174828,0.016901537900361748,0.039085383199167774,0.00018512200621272483,0.036507969089355864,0.0003616198113776865,0.00025014599686708883,0.001167999050769011,0.000766326644319955,0.035310896865667914,0.0187085609650579,0.030533896057089737,0.002121695898793107,0.0002990263771376301,0.8170414286578044,0
0.0007580345691871437,0.01683533451379285,0.0390916204235589,0.0001849501609285336,0.03645779370357555,0.00036223126933832575,0.00025163627029231947,0.0013716705405743262,0.0007668807039595292,0.035310896865667914,0.01879106174479089,0.030433631907725665,0.0021190446841451833,0.0002988204478105159,0.8169663921946524,0
0.0007567274412110965,0.016791103183937707,0.03903511850848641,0.00018443462507595975,0.03641608948682311,0.00036355543316867123,0.0002521557803667638,0.0013989503369981765,0.0007672969243716971,0.03525811151970334,0.01868783515941767,0.030356401414296578,0.002117360107050308,0.0002984615709734576,0.8173163985081191,0
0.0007577958560993195,0.016901537900361748,0.03904771525578612,0.00018483522544624975,0.03644117717971325,0.0003634522000064855,0.0002510535594788917,0.001181506522784713,0.0007670212459168845,0.03535618345774893,0.018718823257171033,0.030425803475643193,0.002120973266835974,0.00029917932464757423,0.8171829422723597,0
0.0007619559531152849,0.017078319611568502,0.0391417628157228,0.00018557951638492224,0.036499660827424694,0.0003634522000064855,0.0002510535594788917,0.001154491578753333,0.0007679915259686266,0.03543911085363756,0.018801324036904,0.03047984976636647,0.0021207292612400582,0.00030056384949249263,0.8166541546439359,0
0.0007659978523887353,0.017210869992920114,0.03919826473079528,0.00018598011675521227,0.036499660827424694,0.00036406365796712477,0.00025176646381462543,0.0013716705405743262,0.0007702077645269235,0.03536368221163248,0.018760073647037526,0.030487678198448945,0.0021195280029217074,0.00030164048000366756,0.8163489155127887,0
0.0007696805232290523,0.01743188303398201,0.039267241094650004,0.00018712500806417474,0.03654136504417715,0.0003625369983186454,0.00025079443644905944,0.001290360856087668,0.0007685455856082009,0.03532589437343501,0.018811787550431117,0.030533896057089737,0.002125782992524685,0.0003028190755214718,0.816030287370432,0
0.000775147748221065,0.017836858196941436,0.039417790569659154,0.0001893567650017234,0.03662493638477875,0.0003601943996382743,0.00024910824073297994,0.0008557380800532112,0.0007641104057616581,0.03533354016170842,0.01894580101214371,0.030595770779895504,0.002131080729405226,0.0003045114947001339,0.8156160550313588,0
0.0007812105971312407,0.01808731092183549,0.03946793296182305,0.00019004303026001957,0.036608156953819755,0.0003609071055079803,0.0002486544594270785,0.000841965755645063,0.0007650806858134003,0.035310896865667914,0.018997514915537306,0.03061880443583049,0.0021322819877235776,0.00030615193171855355,0.8152830873922591,0
0.00078370665534082,0.0181461902894998,0.039411431046750565,0.0001892418295194396,0.036533056782246005,0.0003620267882670731,0.00024917396950152273,0.001167999050769011,0.0007670212459168845,0.03528075481574385,0.019049027597516928,0.03063431075322463,0.002135890455093937,0.0003070236325595418,0.81498314508805,0
0.0007847750702290429,0.01832297200070655,0.039392719373577204,0.00018969933969163708,0.036574760998998444,0.0003615185634686196,0.00024982114506871367,0.00099160735738757,0.0007627239052977481,0.03515254082777421,0.0190387653054038,0.03063431075322463,0.0021380583509653366,0.0003074844744032296,0.8150982425338033,0
0.0007878667523567854,0.018558633079577617,0.03948052970912276,0.00019009994006192712,0.036608156953819755,0.00036213002142925903,0.00025072870768051654,0.0006790815342793,0.0007607833451942637,0.0350922567279261,0.019007777207650435,0.03072689701727705,0.0021375750321888124,0.00030851012241108974,0.8150489738490243,0
0.0007917881362849267,0.018580748744505188,0.039593411240750255,0.00018981427517392085,0.036516277351287,0.00036314845627928463,0.000251182488986418,0.0008149508116136589,0.0007635563461220839,0.03518268287769826,0.01905928988963006,0.03085049591611775,0.002140944186378563,0.00031004759476595224,0.8145916616844067,0
0.0007934521750913128,0.018573281117386795,0.039630956885614445,0.0001904436306303096,0.03647457313453455,0.0003617230445398725,0.0002504051198969211,0.0008692455520689132,0.0007630022864825097,0.03519018163158181,0.019162516475003277,0.03088903588944688,0.00214575860448258,0.0003110732427738125,0.814394351210466,0
0.0007944023922370208,0.01878682653133029,0.039649790857305266,0.00019141667665508087,0.036507969089355864,0.00036039888070952696,0.00024982114506871367,0.0008149508116136589,0.0007632779649373224,0.03517518412381473,0.019296731158129857,0.03093540429485849,0.002149850390629464,0.00031138113710755605,0.8140125945462472,0
0.0007976122721072783,0.019015163591296763,0.03976890961332389,0.000192102941913377,0.036608156953819755,0.0003612128344882999,0.00025079443644905944,0.001167999050769011,0.0007686834248356072,0.03541646755759705,0.0195546970108559,0.031074358964322524,0.0021561053802324416,0.00031245676796180316,0.8125552792000272,0
0.0007993945086561793,0.019044603275128923,0.03983800827569607,0.00019296105245586453,0.03667511177055904,0.0003616198113776865,0.00025124821775496085,0.001480524873877281,0.0007707618241664978,0.03563510769533886,0.019833187447808202,0.031190129431080738,0.0021628436886119433,0.0003134824159696634,0.8114510157115181,0
0.0007982055784226471,0.018985723907464606,0.03976890961332389,0.00019330474302424702,0.036658332339600044,0.00036111158657923316,0.00025059977817299024,0.0013716705405743262,0.0007692374844751815,0.03557482359549075,0.019843650961335304,0.031197957863163227,0.0021650068920680368,0.000313380450963034,0.8117480846653424,0
0.0007988012023408103,0.019022487610201356,0.03980034033231442,0.00019319092342043198,0.03667511177055904,0.00036111158657923316,0.00025079443644905944,0.0012222937912242653,0.0007677131447838651,0.0354842504113287,0.019750686668075217,0.031220991519098212,0.002163566320569076,0.0003132774862994769,0.8119753827967569,0
0.0008004652411471965,0.019029955237319745,0.03985048272447832,0.00019290414265395701,0.03668342003249019,0.0003616198113776865,0.0002515718055385563,0.0009643275609637199,0.0007645266261738261,0.03549189619960213,0.01980240057146881,0.03127503780982149,0.0021650068920680368,0.000313790310303407,0.8120525950345929,0
0.0008002265280593724,0.01895628422363246,0.03980034033231442,0.00019233169699947578,0.03670003655635251,0.00036233251724739274,0.00025124821775496085,0.000692589006295002,0.0007635563461220839,0.035529537003409724,0.01994687754670852,0.03128286624190397,0.0021717452004475384,0.00031471299364771004,0.8122353155891049,0
0.0008011767452050803,0.018993047926369192,0.03985671994886943,0.00019256045208557453,0.036800387327913096,0.00036355543316867123,0.00025072870768051654,0.0006382942658397478,0.0007641104057616581,0.035559679053333786,0.020029378326441506,0.031313728329921436,0.0021780048824658216,0.0003154307473218266,0.8119431974476227,0
0.0008018905668657586,0.019000515553487602,0.03998843545218776,0.00019290414265395701,0.0367836078969541,0.00036365668107773817,0.00025092336595658574,0.0005839995253844935,0.0007617536252460059,0.03553703575729327,0.020039640618554618,0.03134459041793891,0.0021784835088270393,0.0003151738354913977,0.8118573890520807,0
0.0007997514194865184,0.01880894219625786,0.03998843545218776,0.000192102941913377,0.0365998486918886,0.00036182429244893937,0.00025085890120282256,0.0004619025724583069,0.00076092118442167,0.03549939495348568,0.020122141398287607,0.03136777462064472,0.002179445453964782,0.00031532778265826953,0.8122913281386931,0
0.0007999878149715482,0.018691183460929236,0.03996972377901441,0.00019141667665508087,0.036507969089355864,0.00036039888070952696,0.00025059977817299024,0.0005704920533688155,0.0007641104057616581,0.03560496564541481,0.020297606471280677,0.031483545087402934,0.0021857051359830655,0.0003168142725098174,0.8120054814484696,0
0.0008011767452050803,0.018705831498738397,0.04000726942387859,0.00019135976685317332,0.0365830692609296,0.0003609071055079803,0.00025124821775496085,0.0007876710151898086,0.0007661888050925486,0.03574067838726801,0.020400833056653894,0.031545269263437876,0.0021900362353105586,0.00031686625467005974,0.8113515949635095,0
0.0007997514194865184,0.01865427614997867,0.03997596100340552,0.00019141667665508087,0.03659154042995744,0.00036111158657923316,0.0002517019990608623,0.0007333762747345543,0.0007643860842164705,0.035680394287419884,0.020318332276920908,0.03145268299938547,0.00218762902625855,0.0003157386416555702,0.8117217011442852,0
0.0007989194000833252,0.018484962065890318,0.03994453028441498,0.00019101607628479084,0.03645779370357555,0.00036009315172920735,0.000251312682508724,0.000692589006295002,0.0007635563461220839,0.03549939495348568,0.020184117593794328,0.03139095882335052,0.002186423075524892,0.00031599455382907147,0.8124783382831116,0
0.0007984442915104712,0.018315504373588146,0.03991945908833305,0.00019004303026001957,0.036424397748754264,0.0003606033617807796,0.00025085890120282256,0.0007468837467502563,0.0007634158041647287,0.03536368221163248,0.02004990291066775,0.03136777462064472,0.002186423075524892,0.0003161485009959432,0.8129464583341897,0
0.0007973735590194539,0.018286064689756,0.039913221863941924,0.00018952749440744585,0.03654136504417715,0.00036192554035800614,0.0002505353134192271,0.0005432122569449411,0.0007618914644734123,0.035408968803713504,0.020122141398287607,0.031360096735333055,0.002188830284576901,0.000316712307503188,0.8129581332440882,0
0.0008003447258018873,0.018367059722347874,0.03996972377901441,0.0001901579657423033,0.0365998486918886,0.0003606033617807796,0.0002503406551431579,0.00036682056356350035,0.000763140125709916,0.035680394287419884,0.020586560421760082,0.0315144071754204,0.0022030295332930373,0.00031927542786591067,0.8120282935632482,0
0.0008026043885264368,0.01827874067085141,0.04004493736726024,0.0001903286951480259,0.036499660827424694,0.0003589734689701146,0.00025079443644905944,0.0006382942658397478,0.0007679915259686266,0.03596681727889337,0.02093749056774623,0.03170740813560772,0.0022145775673612497,0.0003206079705505867,0.8110207728334025,0
0.0007992763109136643,0.01802096392705277,0.040001032199487474,0.00018975736537201344,0.036407781224891946,0.00035978742274888774,0.00025163627029231947,0.0009100328205084655,0.0007692374844751815,0.035974463067166784,0.02079301359250652,0.03166119027696691,0.002208805896534797,0.0003187116213586659,0.8113343105197236,0
0.000795591322470553,0.017836858196941436,0.03987555392056026,0.00018901307443334095,0.036407781224891946,0.00036111158657923316,0.00025176646381462543,0.0008284582836293609,0.0007674374663290525,0.035808461240999664,0.020607286227400316,0.03152208506073207,0.002202306901335904,0.0003178399205176776,0.8122284491093645,0
0.000794998016155184,0.017696983796685235,0.039844245500087194,0.00018844062877885969,0.036407781224891946,0.00036111158657923316,0.00025150734078479317,0.001005114829403272,0.0007706239849390913,0.03583110453704017,0.02071031159135956,0.03158395978353783,0.002205192736749131,0.0003188655685255377,0.812029758874483,0
0.000794165996751991,0.01752020208547848,0.03986307947177802,0.00018758251823637216,0.0363826935320018,0.0003608058575989135,0.0002511180242326549,0.0013716705405743262,0.0007729807654547437,0.03590653317904525,0.02064853661726681,0.03163017764217863,0.0022030295332930373,0.0003180968323481065,0.8117893274037609,0
0.0007926201556881198,0.0174392070528866,0.03974383841724193,0.00018643762692740977,0.03632420988429035,0.0003609071055079803,0.0002504695846506843,0.0012630810596638176,0.0007697915441147556,0.035868892375237646,0.02047307154427375,0.03146818931677961,0.0021998996922838955,0.00031702020183693155,0.8125423644386165,0
0.0007921450471152657,0.01740229974193604,0.03956821774615084,0.00018660947221160103,0.03633251814622151,0.0003609071055079803,0.00025027492637461513,0.0011001968382980786,0.0007686834248356072,0.03583110453704017,0.020555572324006722,0.03133691253262725,0.002204953423568522,0.0003174810436806192,0.8129921236904252,0
0.0007935703728338277,0.017358212020294708,0.03963731640852303,0.00018758251823637216,0.03644117717971325,0.00036111158657923316,0.0002506642429267534,0.0012360661156324375,0.0007692374844751815,0.0358990344251617,0.020772287786866288,0.03142949879667966,0.002210246468033757,0.000318454709528237,0.8123355398845156,0
0.000795948233300892,0.01738765170412687,0.03985048272447832,0.00018804002840856968,0.036524585613218155,0.0003620267882670731,0.00025085890120282256,0.0012087863192085633,0.0007690996452477752,0.03608003375909592,0.021040515931705462,0.03162249975686696,0.0022184300403275247,0.0003198902168764701,0.8113811503376687,0
0.0007966620549615702,0.01743188303398201,0.03993205583563275,0.00018804002840856968,0.03654136504417715,0.00036233251724739274,0.00025079443644905944,0.001005114829403272,0.0007710402053512595,0.03621574650094911,0.02128821949231837,0.031761454426330986,0.002227575557759035,0.00032045402338371496,0.8109072620136457,0
0.000794998016155184,0.017380327685222286,0.039869316696169145,0.00018798311860666216,0.036533056782246005,0.00036213002142925903,0.00025124821775496085,0.0010594095698585263,0.0007740888847338922,0.036140317858944025,0.02117473061483204,0.031722914453001856,0.002224206403569284,0.0003191214806990389,0.8112061501967778,0
0.0007930952642609736,0.017255101322775256,0.03981281478109666,0.00018712500806417474,0.036499660827424694,0.00036213002142925903,0.0002518309285683886,0.0013989503369981765,0.0007754753851978022,0.03605739046305541,0.020906502469992868,0.031545269263437876,0.002215544204914298,0.0003181987973547358,0.8116209109254294,0
0.0007913130277120726,0.017048879927736342,0.039781506360623595,0.0001861519620394035,0.03641608948682311,0.0003620267882670731,0.0002517019990608623,0.001629901623227342,0.0007760294448373763,0.036125173316787065,0.020999265541838962,0.03150672929010875,0.0022165061500520407,0.0003185576741917941,0.8115901674066942,1
0.0007897671866482014,0.01687209821652959,0.03971876722115998,0.00018603702655711977,0.036349297577180494,0.0003616198113776865,0.00025085890120282256,0.00161639415121164,0.0007746429443734664,0.03611767456290351,0.02105097944523256,0.03159163766884949,0.0022169847764132583,0.00031794288518123467,0.8117852976251789,1
0.0007883418609296396,0.016768987519010136,0.03964355363291415,0.0001854645809026385,0.03624894680561991,0.00036039888070952696,0.0002499513385910197,0.0014262301334220268,0.0007692374844751815,0.03586124658696423,0.020741299689112924,0.0315144071754204,0.0022097678416725386,0.0003166613249998733,0.8129155051452558,1
0.0007871529306961073,0.016651228783681516,0.03963731640852303,0.00018454956055824357,0.036182154895977314,0.0003586677399897949,0.00024962775080742425,0.0010866893662823767,0.000764942846585994,0.0356199631531819,0.020607286227400316,0.03139095882335052,0.0022039914784307796,0.0003163534306661297,0.8139591166038685,1
0.0007870347329535924,0.016614321472730956,0.03968745880068692,0.00018466449604052733,0.03624063854368875,0.0003588722210610476,0.0002499513385910197,0.0007333762747345543,0.000763140125709916,0.03556717780721733,0.020689787007133302,0.031421820911368,0.0022042307916113886,0.0003166093428396309,0.8141809161336331,1
0.000787271128438622,0.016621789099849356,0.0396812215762958,0.00018535076129882347,0.036274034498510056,0.00035999190382014036,0.00025072870768051654,0.0005704920533688155,0.0007628617445251544,0.035642606449222416,0.020720775104886662,0.03146818931677961,0.002208805896534797,0.0003166093428396309,0.8141492724159496,1
0.0007853706941472062,0.016548118086162054,0.039630956885614445,0.00018506398053234853,0.03623233028175761,0.0003598906559110735,0.0002511180242326549,0.0007606560711584047,0.0007672969243716971,0.035793463733232576,0.020803275884619648,0.03146036088469713,0.002211452418767414,0.0003161485009959432,0.8138944969737998,1
0.0007838248530833348,0.016533326440139072,0.03961212291392362,0.00018466449604052733,0.03624894680561991,0.0003594816937685681,0.000251182488986418,0.0013446555965429222,0.0007758916056099702,0.03598196182105033,0.020906502469992868,0.031437176681991315,0.002210246468033757,0.00031589158916551423,0.8130541240760518,1
0.0007834679422529957,0.016467123053570173,0.0396184824368322,0.00018483522544624975,0.0362991221914002,0.0003606033617807796,0.0002518309285683886,0.0018743603814721855,0.0007796321838595834,0.03609503126686301,0.020875514372239504,0.03139095882335052,0.0022112084131714993,0.0003154817298251413,0.8124923476893676,1
0.0007816857057040947,0.01628301732345883,0.03961212291392362,0.00018449265075633607,0.03637422236297396,0.0003625369983186454,0.00025267402642642836,0.0018743603814721855,0.0007776916237560991,0.03614781661282757,0.02082400169025988,0.03132908410054477,0.0022124143639051562,0.0003145590464808382,0.8126693201991916,1
0.0007799034691551935,0.01629034134236342,0.0395557432973686,0.00018449265075633607,0.036449485441644405,0.0003638611621489909,0.00025280295593395466,0.0017927858445930809,0.000778107844168267,0.036208100712675696,0.02081353817673276,0.03135226830325057,0.0022078392589817484,0.0003136873456398499,0.8126570421945871,1
0.0007793078452370303,0.01641556770481044,0.03946793296182305,0.00018506398053234853,0.036449485441644405,0.00036416490587619165,0.00025209005159822093,0.0018608529094564833,0.0007792186661773644,0.03617045990886809,0.020762025494753155,0.03136777462064472,0.002205192736749131,0.0003132774862994769,0.8126275852855299,1
0.0007782394303488076,0.016341896691123143,0.039398956597968326,0.00018454956055824357,0.03637422236297396,0.0003634522000064855,0.00025137714726248715,0.0016569165672587218,0.0007758916056099702,0.036072387970822496,0.020741299689112924,0.03132908410054477,0.0022078392589817484,0.0003135333984729781,0.813210353418955,1
0.0007761002829695672,0.016120883650061247,0.03943026501844139,0.00018311900436127486,0.03631573871526251,0.00036233251724739274,0.0002511180242326549,0.0013311481245272202,0.0007729807654547437,0.03605739046305541,0.020720775104886662,0.03127503780982149,0.002206159374302179,0.0003129695919657333,0.8138839815534105,1
0.0007743157288178719,0.015995800895828034,0.03940519382235945,0.0001825465587067936,0.036274034498510056,0.0003613160676504859,0.0002510535594788917,0.0013581630685586242,0.0007745051051460601,0.03601960262485793,0.020607286227400316,0.031197957863163227,0.002201584269378771,0.00031132915494731366,0.8142853105551962,1
0.0007730086008418247,0.01593677791994991,0.039279715543432236,0.0001822608938187874,0.036190463157908456,0.0003612128344882999,0.00025150734078479317,0.0015348196143325353,0.0007757537663825639,0.035959318525009824,0.020535047739780477,0.031143911572439946,0.0021996603791032865,0.0003110222602704977,0.8145655198514565,1
0.0007721765814386318,0.015855782887358023,0.03926100387025888,0.0001815166028801149,0.03617384663404616,0.00036192554035800614,0.0002522202451205269,0.001697703835698274,0.0007763078260221381,0.03596681727889337,0.020576298129646953,0.031182451545769072,0.002197013856870669,0.00031168803178437197,0.8144332471338548,1
0.000772297096783941,0.015855782887358023,0.039392719373577204,0.00018134475759592366,0.03632420988429035,0.00036233251724739274,0.0002526095616726652,0.001820065641016931,0.0007776916237560991,0.03601960262485793,0.02065879890937994,0.031313728329921436,0.0021960519117329266,0.00031163704928105723,0.8137611278315282,1
0.000773129116187134,0.015951569565972896,0.039417790569659154,0.00018186029344849738,0.03644117717971325,0.0003620267882670731,0.0002521557803667638,0.001820065641016931,0.0007778321657134544,0.03606488921693895,0.020689787007133302,0.03134459041793891,0.0021991770603267623,0.00031112422527712716,0.8134128249720398,1
0.0007719401859536018,0.015855782887358023,0.03926100387025888,0.00018157351268202244,0.03635760583911165,0.00036141731555955277,0.00025228470987429007,0.001765770900561701,0.0007750591647856344,0.03598196182105033,0.02051432193414023,0.031182451545769072,0.002197492483231887,0.00031004759476595224,0.8142312862348972,1
0.0007688508214286538,0.01563491345450994,0.03919202750640416,0.00018002913688123872,0.0362991221914002,0.00036111158657923316,0.00025332246600839897,0.001697703835698274,0.0007738132062790796,0.035868892375237646,0.020380107251013645,0.031097543167028334,0.0021909981804483004,0.0003093298410918357,0.8149922349799911,1
0.0007687303060833443,0.015671677157246686,0.039254644347350286,0.00017980038179513997,0.03637422236297396,0.0003612128344882999,0.0002533869307621621,0.0016026218268034675,0.0007756132244252083,0.03602724841313135,0.020535047739780477,0.031220991519098212,0.002192682757543176,0.0003105604187698823,0.8144715597797483,1
0.0007703943448897306,0.01577478785476614,0.039267241094650004,0.00018083033762181867,0.03641608948682311,0.0003610103386701662,0.00025280295593395466,0.0015483270863482373,0.0007756132244252083,0.03618560445102505,0.020731037396999795,0.03128286624190397,0.0021960519117329266,0.0003110732427738125,0.813946270031436,1
0.0007693259300015077,0.01572323250600641,0.039223335926877226,0.00018071540213953494,0.036424397748754264,0.0003620267882670731,0.0002528686847024975,0.0016841963636825964,0.0007767213437043568,0.03615531536671113,0.020741299689112924,0.031220991519098212,0.0021946066478186607,0.0003099456297593229,0.8139810204533643,1
0.0007689690191711687,0.015730556524911,0.03929231229073194,0.00018002913688123872,0.036424397748754264,0.0003633509520974185,0.00025332246600839897,0.001996457334398396,0.0007811592262808489,0.03629117514295419,0.02079301359250652,0.031313728329921436,0.002197492483231887,0.00031045745410632523,0.813303578298045,1
0.0007709899688078939,0.015796903519693713,0.039392719373577204,0.00018037171157115242,0.036349297577180494,0.0003634522000064855,0.0002537762473143004,0.0022954756854909643,0.0007835133040665519,0.03644188539257447,0.02089603895646575,0.03142949879667966,0.0022001390054645045,0.00031122718994068424,0.8125347110711661,1
0.0007703943448897306,0.015796903519693713,0.03936128865458667,0.00018031480176924496,0.03630743045333135,0.0003637579289868051,0.0002542300286202018,0.002417572638417151,0.0007819889643752355,0.03630617265072129,0.020844526274486123,0.03133691253262725,0.0021958079061370115,0.00031020154193282405,0.8127724977594254,1
0.0007677800889376366,0.01574534817093398,0.03936128865458667,0.0001798572915970475,0.036424397748754264,0.00036508209281715064,0.00025487720418739283,0.0023089831575066415,0.0007804646246839192,0.03623074400871621,0.020741299689112924,0.03124417572180402,0.0021931613839043943,0.0003094328057553928,0.8130931073567023,1
0.0007681369997679756,0.015730556524911,0.03940519382235945,0.00018065849233762744,0.036516277351287,0.0003657947986868568,0.00025546117901560026,0.0022274086206275374,0.0007812970655082552,0.03632131719287825,0.020720775104886662,0.03128286624190397,0.002192922070723785,0.0003096377354255793,0.8129416967996805,1
0.0007689690191711687,0.015730556524911,0.03933621745850473,0.00018100106702754118,0.03637422236297396,0.00036447063485651137,0.00025552564376936333,0.0022003936765961573,0.0007812970655082552,0.03629117514295419,0.020638073103739708,0.03123649783649235,0.0021893136033534254,0.0003093298410918357,0.8133429570190498,1
0.0007670662672769583,0.0156643531383421,0.03930490903803167,0.00017980038179513997,0.03622385911272976,0.0003630452231170989,0.00025520205598576794,0.0021053116677013507,0.0007788024457651966,0.03615531536671113,0.02046280925216062,0.031143911572439946,0.0021859444491636746,0.00030866406957796155,0.8141010059592015,1
0.000764927119897718,0.01556856645972723,0.03932362071120501,0.00017939978142485002,0.036274034498510056,0.0003634522000064855,0.0002549429329559356,0.002037244602837948,0.0007764456652495444,0.03606488921693895,0.02034932037467427,0.03117477366045742,0.0021830539213351418,0.00030830519274090324,0.8143770236620385,1
0.0007640951004945249,0.015524335129872087,0.03923593267417693,0.0001798572915970475,0.03635760583911165,0.00036487761174589775,0.0002549429329559356,0.0022003936765961573,0.000779910565044345,0.03610253002074655,0.020400833056653894,0.031190129431080738,0.002181613349836181,0.000307946315903845,0.8141549970041843,1
0.000762906170260993,0.015502363073158333,0.03917319353471333,0.00017957051083057247,0.03632420988429035,0.00036508209281715064,0.000255071862463462,0.002471867378872405,0.0007850376437578684,0.03625338730475671,0.020504059642027114,0.03115158945775161,0.0021852218172065414,0.0003075354569065443,0.8137789041701871,1
0.0007613626467999158,0.015465455762207776,0.039210739179577514,0.00017911300065837497,0.03629081392946904,0.0003642681390383775,0.0002549429329559356,0.0024991471752962555,0.0007836538460239071,0.036328815946761794,0.020493596128499995,0.03117477366045742,0.0021857051359830655,0.0003072285622297283,0.8137003839540409,1
0.0007606488251392377,0.015443340097280203,0.039223335926877226,0.00017916991046028246,0.036274034498510056,0.00036416490587619165,0.00025468380992610325,0.002173113880172283,0.0007785240645804349,0.03620060195879215,0.020390570764540764,0.031167095775145752,0.002180407399102524,0.0003070236325595418,0.8143032845510372,1
0.0007605306273967229,0.015472923389326177,0.03924840712295917,0.00017922793614065874,0.03623233028175761,0.0003643693869474444,0.00025429449337396496,0.0019151476499117378,0.0007765835044769505,0.036042245920898434,0.020338856861147173,0.031089865281716665,0.002178244195646431,0.000306766720729113,0.8148402066275717,1
0.0007608875382270621,0.015472923389326177,0.039279715543432236,0.00017916991046028246,0.03624894680561991,0.0003643693869474444,0.00025468380992610325,0.002159606408156605,0.0007797727258169386,0.03605739046305541,0.020287344179167548,0.031082036849634193,0.002178966827603564,0.0003066647557224836,0.814587521406904,1
0.0007614808445424308,0.015436016078375617,0.03924840712295917,0.00017911300065837497,0.03631573871526251,0.0003642681390383775,0.0002553309854932942,0.0023767853699775987,0.0007814349047356613,0.036177958662751634,0.020277081887054415,0.031097543167028334,0.002178244195646431,0.00030661277356224117,0.8142439841529139,1
0.00076183775537277,0.015539126775895074,0.03923593267417693,0.00017957051083057247,0.03637422236297396,0.0003642681390383775,0.0002547482746798664,0.002146098936140903,0.0007792186661773644,0.03616296115498453,0.020338856861147173,0.031027990558910912,0.0021784835088270393,0.00030681770323242767,0.8143498661176121,1
0.0007619559531152849,0.01561279778958237,0.03926100387025888,0.00017991420139895495,0.0363826935320018,0.0003645738680186971,0.0002543589581277282,0.0022003936765961573,0.0007790781242200092,0.03608753251297947,0.020256356081414184,0.030950910612252643,0.002178966827603564,0.0003065617910589265,0.8144229022013714,1
0.0007615990422849458,0.015480247408230757,0.039298549515123064,0.00017957051083057247,0.036407781224891946,0.000364776363836831,0.00025520205598576794,0.002390557694385746,0.0007800484042717514,0.03606488921693895,0.020070628716308,0.030997128470893438,0.0021751143546372893,0.00030599798455168174,0.8144679090368292,1
0.00076183775537277,0.015546450794799658,0.039298549515123064,0.00018008604668314618,0.0364662648726034,0.00036498084490808365,0.0002552665207395311,0.0021188191397170527,0.0007775537845286928,0.03601960262485793,0.020070628716308,0.031074358964322524,0.002170783255309796,0.00030584403738481,0.8145889731273416,1
0.0007625515770334481,0.01584845886845344,0.039267241094650004,0.00018105909270791745,0.036424397748754264,0.00036508209281715064,0.00025429449337396496,0.0018743603814721855,0.0007754753851978022,0.03596681727889337,0.02008089100842111,0.03106668107901086,0.002168376046257787,0.0003054851605477516,0.8146588286924089,1
0.0007617195576302549,0.015907338236117754,0.039242169898568054,0.00018071540213953494,0.036365914101042805,0.00036508209281715064,0.0002543589581277282,0.0020780318712775004,0.0007775537845286928,0.035876391129121186,0.01979193705794171,0.030997128470893438,0.0021621210566548097,0.0003042036003663902,0.814935334782773,1
0.000759580410251015,0.01583366722243045,0.03924840712295917,0.00018060046665725117,0.036407781224891946,0.00036487761174589775,0.00025487720418739283,0.0022003936765961573,0.0007783862253530286,0.035823605783156624,0.019657923596229115,0.03088135800413521,0.0021551434350946994,0.0003032299345187725,0.8151501680817932,1
0.0007599350034785596,0.015973685230900463,0.039273478319041114,0.00018191720325040492,0.03649118965839685,0.0003642681390383775,0.00025429449337396496,0.002010229658806544,0.000778107844168267,0.03590653317904525,0.01982292515569507,0.030804127510706138,0.0021553827482753084,0.00030358881135583075,0.8149203370444679,1
0.0007607670228817527,0.016076795928419922,0.039254644347350286,0.00018203213873268863,0.03645779370357555,0.0003638611621489909,0.0002536460537919944,0.0018470805850483352,0.0007775537845286928,0.03594432101724272,0.01981266286358194,0.03081195594278861,0.002158029270507926,0.0003030759873519007,0.8149957801920487,1
0.0007579163714446287,0.015900014217213165,0.039179430759104454,0.00018088724742372622,0.03639931005586411,0.00036416490587619165,0.0002536460537919944,0.001711211307713976,0.0007743672659186538,0.03575582292942497,0.019575221595082144,0.03078094330800033,0.002153937484361042,0.00030164048000366756,0.8159114860187769,1
0.0007547064915743714,0.015730556524911,0.03914812233863139,0.00018060046665725117,0.0364662648726034,0.00036416490587619165,0.0002532567372398561,0.0015756068827720876,0.0007714564257634275,0.03557482359549075,0.019420482327729322,0.030711541246653717,0.0021488837530764158,0.0003015375153401105,0.8165979959156807,1
0.0007550634024047105,0.01577478785476614,0.0392045019551864,0.00018105909270791745,0.036524585613218155,0.0003642681390383775,0.0002529331494562606,0.0016569165672587218,0.0007740888847338922,0.035612464399298355,0.01944120813336955,0.030734725449359523,0.0021488837530764158,0.00030194837433741113,0.8162725652317881,1
0.0007573207475264656,0.015914662255022336,0.0392045019551864,0.00018157351268202244,0.036516277351287,0.00036498084490808365,0.00025396964157558985,0.0018878678534878875,0.0007765835044769505,0.035710536337343946,0.019502983107462308,0.030804127510706138,0.002150329016990682,0.00030164048000366756,0.8156726458813405,1
0.0007572025497839505,0.01593677791994991,0.0391042171708586,0.00018157351268202244,0.0364662648726034,0.00036498084490808365,0.0002549429329559356,0.0019151476499117378,0.0007738132062790796,0.035665249745262924,0.019410220035616186,0.03074240333467119,0.002148644439895807,0.0003008197616659938,0.8159777420229553,1
0.0007552997978897401,0.015885222571190183,0.0390916204235589,0.0001807723119414424,0.0364327060106854,0.0003645738680186971,0.0002546180811575605,0.0018743603814721855,0.0007724267058151693,0.03556717780721733,0.019296731158129857,0.03067285072655377,0.002145035972525447,0.00030056384949249263,0.8164060403343518,1
0.0007564887281232723,0.01593677791994991,0.03919202750640416,0.00018105909270791745,0.03655814447513615,0.00036518334072621736,0.00025429449337396496,0.0019151476499117378,0.0007743672659186538,0.03567274849914647,0.019544434718742766,0.030788771740082804,0.002147921807938674,0.0003019993568407258,0.8156106334049966,1
0.0007594598949057055,0.016032564598564777,0.039254644347350286,0.00018243273910297864,0.03662493638477875,0.0003655903176156039,0.0002539051768218267,0.0018878678534878875,0.0007760294448373763,0.03589153567127815,0.019853913253448433,0.03094308218017016,0.00215658400659366,0.0003031269698552154,0.8147143271611892,1
0.0007583914800174828,0.01595889358487748,0.039210739179577514,0.00018231780362069487,0.036499660827424694,0.000364776363836831,0.00025332246600839897,0.0019151476499117378,0.0007772781060738804,0.03598196182105033,0.01982292515569507,0.03088903588944688,0.002158268583688535,0.000302255269014227,0.8149250258197562,1
0.0007558954218079035,0.01583366722243045,0.03912928836694056,0.00018105909270791745,0.03639100179393295,0.00036416490587619165,0.00025312780773232977,0.0019151476499117378,0.0007756132244252083,0.0358990344251617,0.01968871047256849,0.03081195594278861,0.002151774280904949,0.00030123062066329456,0.8155483287721477,1
0.0007558954218079035,0.01584113484954885,0.03912928836694056,0.0001807723119414424,0.03644117717971325,0.00036416490587619165,0.00025319227248609295,0.0016434090952430198,0.0007711780445786656,0.03576332168330852,0.01967844818045536,0.03081195594278861,0.0021493670718529404,0.0003013845678301663,0.8159153101056285,1
0.0007558954218079035,0.015855782887358023,0.03917319353471333,0.00018117291231173243,0.036524585613218155,0.00036508209281715064,0.00025319227248609295,0.0014532450774534307,0.0007706239849390913,0.03574067838726801,0.019709436278208724,0.03078094330800033,0.002153458857999824,0.00030184540967385405,0.8159808639617444,1
0.0007557749064625942,0.01583366722243045,0.039179430759104454,0.00018128784779401617,0.03654136504417715,0.0003670157293550164,0.0002539051768218267,0.001697703835698274,0.0007753375459703959,0.03580096248711611,0.019709436278208724,0.030773265422688663,0.002154420803137566,0.00030169146250698224,0.8156747354785278,1
0.0007554203132350496,0.0158042275385983,0.03909785764795002,0.00018094415722563366,0.03647457313453455,0.00036671000037469666,0.00025396964157558985,0.0019013753255035894,0.0007763078260221381,0.03574067838726801,0.019513446620989406,0.03074240333467119,0.0021484051267151977,0.000300922726329551,0.8159427582190071,1
0.0007543495807440323,0.015789579500789127,0.03904147803139501,0.00018100106702754118,0.0364662648726034,0.0003638611621489909,0.00025280295593395466,0.0017249836321221487,0.0007733969858669116,0.03568789304130344,0.019368969645749693,0.03067285072655377,0.00214575860448258,0.0003008197616659938,0.8164759904316135,1
0.0007552997978897401,0.015922129882140736,0.03911669161964084,0.00018237471342260237,0.0365998486918886,0.00036355543316867123,0.0002524793681503592,0.0015756068827720876,0.0007732564439095564,0.03577082043719205,0.019606209692835504,0.030734725449359523,0.0021508123357672068,0.0003017944271705393,0.815894394824692,1
0.0007580345691871437,0.016025240579660194,0.039242169898568054,0.0001828902492751761,0.03659154042995744,0.00036538782179747025,0.00025319227248609295,0.001765770900561701,0.0007750591647856344,0.0358387503253136,0.019771412473715447,0.03090454220684103,0.002153458857999824,0.0003021533040075977,0.8150703969458436,1
0.0007573207475264656,0.015863106906262612,0.03926100387025888,0.00018128784779401617,0.036407781224891946,0.00036508209281715064,0.0002536460537919944,0.001996457334398396,0.0007753375459703959,0.035793463733232576,0.019595947400722392,0.030912220092152685,0.0021484051267151977,0.0003011276559997375,0.8153878123674656,1
0.0007541131852590024,0.01567900117615127,0.03911669161964084,0.00018042973725152872,0.036274034498510056,0.00036365668107773817,0.00025312780773232977,0.0018878678534878875,0.0007742267239612985,0.0357030375834604,0.019358506132222595,0.030719219131965382,0.0021433513954305715,0.00030000004298524793,0.8164927364308638,1
0.0007530424527679852,0.01574534817093398,0.03902264405970418,0.00018105909270791745,0.03624894680561991,0.00036406365796712477,0.00025267402642642836,0.0016706888916668942,0.0007735348250943179,0.03558982110325785,0.019245017254736246,0.030541724489172223,0.0021416668183356965,0.0002994872189813178,0.8171702811326279,1
0.0007538744721711782,0.015855782887358023,0.03907902367625919,0.00018140166739783113,0.03635760583911165,0.0003652865738884033,0.0002538407120680636,0.0016841963636825964,0.0007733969858669116,0.03558232234937429,0.019255480768263365,0.030557080259795543,0.002141906131516305,0.00029959018364487494,0.8168592111296018,1
0.0007539926699136932,0.015892690198308582,0.0392045019551864,0.00018214595833650362,0.036507969089355864,0.00036538782179747025,0.00025520205598576794,0.0017927858445930809,0.0007743672659186538,0.035695391795186986,0.01937923193786283,0.03074240333467119,0.002144552653748923,0.00030000004298524793,0.8160093773761488,1
0.0007547064915743714,0.015922129882140736,0.03926100387025888,0.00018277531379289237,0.036524585613218155,0.00036508209281715064,0.00025487720418739283,0.0018470805850483352,0.0007758916056099702,0.035808461240999664,0.019482458523236042,0.030896864321529365,0.0021481658135345887,0.0003008717438262362,0.8154750456982263,1
0.0007556567087200793,0.015981009249805053,0.03923593267417693,0.0001824896489048861,0.036507969089355864,0.0003662017755762432,0.0002550073977096988,0.00195593491835129,0.0007758916056099702,0.0358387503253136,0.01956495930296903,0.03090454220684103,0.002150089703810073,0.00030128160316660925,0.8152242837896897,1
0.0007547064915743714,0.01601777295254179,0.03922957315126834,0.00018237471342260237,0.03655814447513615,0.000367321458335336,0.0002562385481050971,0.0020510169272460964,0.0007753375459703959,0.03583110453704017,0.01969917398609561,0.0308349895987236,0.002149606385033549,0.00030071779665936444,0.8149919214328475,1
0.0007539926699136932,0.016003124914732623,0.03922957315126834,0.00018277531379289237,0.03654136504417715,0.00036640625664749606,0.00025565583729166935,0.001982949862382694,0.0007756132244252083,0.035853747833080686,0.019657923596229115,0.030773265422688663,0.002149606385033549,0.0003002049726554343,0.8151737955156808,1
0.0007556567087200793,0.016025240579660194,0.039223335926877226,0.00018306209455936737,0.036499660827424694,0.000365489069706537,0.0002546180811575605,0.0019151476499117378,0.0007763078260221381,0.03584624907919713,0.019533971205215668,0.03078094330800033,0.0021493670718529404,0.00030056384949249263,0.8153903867222019,1
0.0007552997978897401,0.016032564598564777,0.03924840712295917,0.00018311900436127486,0.03647457313453455,0.0003652865738884033,0.0002546180811575605,0.0019013753255035894,0.0007746429443734664,0.035823605783156624,0.019595947400722392,0.03088135800413521,0.002147682494758065,0.00030071779665936444,0.8152608019373357,1
0.000752685541937646,0.015951569565972896,0.03921709870248611,0.00018220286813841114,0.03635760583911165,0.0003642681390383775,0.0002539051768218267,0.0017384911041378264,0.0007715942649908335,0.0357030375834604,0.019482458523236042,0.03085049591611775,0.0021435907086111805,0.00029959018364487494,0.8159314058822942,1
0.0007519717202769679,0.015900014217213165,0.0391042171708586,0.0001814596930782074,0.03628234276044121,0.00036355543316867123,0.00025345139551592526,0.0015891143547877896,0.0007721483246304078,0.035544681545566705,0.019131528377249914,0.03063431075322463,0.0021382976641459456,0.0002987694653072012,0.8170541371245347,1
0.0007529242550254701,0.015900014217213165,0.039110454395249725,0.00018220286813841114,0.0363826935320018,0.00036406365796712477,0.00025416429985165905,0.001711211307713976,0.0007746429443734664,0.035506893707369216,0.01905928988963006,0.030572586577189698,0.0021380583509653366,0.00029907735964094476,0.81699172263767,1
0.0007531606505105001,0.015922129882140736,0.03922957315126834,0.00018260346850870109,0.036449485441644405,0.0003652865738884033,0.0002545536164037973,0.0018743603814721855,0.0007740888847338922,0.035529537003409724,0.019245017254736246,0.030680679158636242,0.002139982241240821,0.00029917932464757423,0.8163003629667585,1
0.0007530424527679852,0.015944245547068314,0.03923593267417693,0.00018208904853459615,0.036407781224891946,0.0003662017755762432,0.00025416429985165905,0.0017927858445930809,0.0007732564439095564,0.03560496564541481,0.019306993450242973,0.030696034929259576,0.0021404655600173452,0.00029912834214425955,0.8162429127615507,1
0.0007539926699136932,0.01595889358487748,0.039210739179577514,0.00018214595833650362,0.03644117717971325,0.0003662017755762432,0.00025429449337396496,0.001711211307713976,0.0007745051051460601,0.03576332168330852,0.019420482327729322,0.030719219131965382,0.002143112082249963,0.0003002049726554343,0.8160004985478627,1
0.000754467778486547,0.015885222571190183,0.039254644347350286,0.00018237471342260237,0.036449485441644405,0.000365489069706537,0.00025468380992610325,0.001711211307713976,0.0007753375459703959,0.0358387503253136,0.01956495930296903,0.030842818030806084,0.0021459979176631895,0.00030046088482893555,0.8156740969530081,1
0.000752685541937646,0.01582634320352587,0.03924840712295917,0.00018220286813841114,0.03639931005586411,0.00036518334072621736,0.0002549429329559356,0.0017927858445930809,0.0007760294448373763,0.03573317963338446,0.019492720815349175,0.03085049591611775,0.0021426287634734387,0.00029917932464757423,0.8158839051914899,1
0.000751378413961599,0.01584113484954885,0.03919202750640416,0.00018214595833650362,0.03644117717971325,0.00036589604659592357,0.0002553309854932942,0.0019286551219274398,0.0007760294448373763,0.035657750991379376,0.019306993450242973,0.030734725449359523,0.0021375750321888124,0.00029861551814032943,0.8161305640518706,1
0.000752567344195131,0.01583366722243045,0.0392045019551864,0.00018208904853459615,0.036499660827424694,0.0003669144814459494,0.00025552564376936333,0.002010229658806544,0.0007756132244252083,0.0357030375834604,0.019317255742356102,0.03072689701727705,0.0021375750321888124,0.00029923130680781663,0.8159352339116915,1
0.0007531606505105001,0.015863106906262612,0.03923593267417693,0.0001822608938187874,0.03649118965839685,0.0003671189625172021,0.00025552564376936333,0.0020915393432931785,0.0007783862253530286,0.035793463733232576,0.01943074461984245,0.03079644962539447,0.0021411834995591723,0.0002997441308117467,0.8155201934330611,1
0.000752328631107307,0.015929453901045325,0.03922957315126834,0.0001824896489048861,0.036524585613218155,0.0003669144814459494,0.0002553309854932942,0.0021053116677013507,0.000779910565044345,0.03580096248711611,0.01944120813336955,0.030788771740082804,0.0021433513954305715,0.00029979511331506143,0.815400012485457,1
0.0007538744721711782,0.015995800895828034,0.039242169898568054,0.00018306209455936737,0.036533056782246005,0.00036630302348531017,0.0002543589581277282,0.001765770900561701,0.0007739510455064859,0.0357180350912275,0.019399957743503057,0.030788771740082804,0.002141906131516305,0.0002998460958183761,0.8157831351267981,1
0.0007558954218079035,0.016091443966229094,0.039329980234113604,0.0001839202051018548,0.036482881396465695,0.00036569355077778986,0.00025345139551592526,0.0014532450774534307,0.0007696537048873495,0.035680394287419884,0.019482458523236042,0.03088903588944688,0.0021428680766540477,0.0003003079373189915,0.8158187703335715,1
0.0007554203132350496,0.016135675296084236,0.03934881420580443,0.00018397711490376236,0.036499660827424694,0.00036569355077778986,0.0002540353703441327,0.0015483270863482373,0.0007725645450425757,0.03565025223749583,0.019523708913102535,0.030912220092152685,0.002144796659344838,0.00030046088482893555,0.8156043929031103,1
0.0007543495807440323,0.016003124914732623,0.03924840712295917,0.0001828902492751761,0.036499660827424694,0.00036569355077778986,0.0002551375912320047,0.0018878678534878875,0.0007743672659186538,0.03558982110325785,0.01928626764460274,0.030788771740082804,0.0021407048731979543,0.0002996411661481896,0.8159232945161584,1
0.0007539926699136932,0.015892690198308582,0.0392045019551864,0.00018260346850870109,0.036499660827424694,0.00036630302348531017,0.0002552665207395311,0.0020510169272460964,0.0007731186046821501,0.03558982110325785,0.01908001569527029,0.030734725449359523,0.002135167823136804,0.00029912834214425955,0.8161819873913361,1
0.0007536357590833541,0.015892690198308582,0.03924840712295917,0.00018283222359479983,0.036482881396465695,0.000367321458335336,0.0002549429329559356,0.0019013753255035894,0.0007735348250943179,0.03556717780721733,0.019111003793023655,0.030765587537376998,0.002132760614084795,0.0002992822893111313,0.8162665667166853,1
0.0007541131852590024,0.015995800895828034,0.039298549515123064,0.00018306209455936737,0.0364327060106854,0.0003668132335368825,0.0002550073977096988,0.0017249836321221487,0.0007747834863308217,0.03553703575729327,0.019131528377249914,0.030765587537376998,0.0021322819877235776,0.0002996411661481896,0.8163481057230536,1
0.0007570843520414356,0.016172438998820978,0.039367525878977794,0.0001841489601879536,0.036516277351287,0.0003666087524656298,0.0002549429329559356,0.0017519985761535284,0.0007743672659186538,0.035612464399298355,0.019172778767116393,0.03081963382810028,0.0021368524002316797,0.000300922726329551,0.8158119548101148,1
0.0007605306273967229,0.016246110012508277,0.039411431046750565,0.00018466449604052733,0.03665002407766889,0.00036793291629597525,0.0002550073977096988,0.0018743603814721855,0.0007739510455064859,0.035680394287419884,0.019348243840109466,0.03093540429485849,0.00214383002179179,0.00030256316334797056,0.815065552391123,1
0.0007633835964366411,0.016304989380172587,0.039486766933513884,0.0001842638956702373,0.03664155290864106,0.0003677284352247225,0.00025487720418739283,0.001969442390366992,0.0007743672659186538,0.03567274849914647,0.019533971205215668,0.03101263478828758,0.0021474431815774555,0.000303844723529332,0.8145819855921113,1
0.0007665911587041043,0.016445007388642602,0.03962471966122332,0.00018517891601463224,0.0365998486918886,0.0003666087524656298,0.00025442342288149137,0.002023737130822246,0.0007738132062790796,0.03574067838726801,0.019730162083848972,0.03112072736973414,0.002151774280904949,0.0003049213540405068,0.8139118081952816,1
0.0007678982866801514,0.016445007388642602,0.03966238760460498,0.00018609505223749599,0.03655814447513615,0.00036671000037469666,0.0002547482746798664,0.0017792783725773787,0.0007718726461755954,0.03577082043719205,0.019833187447808202,0.031213313633786544,0.0021548994294987847,0.0003051262837106933,0.8139305106668948,1
0.0007673049803647824,0.0163713363749553,0.03961212291392362,0.00018523582581653976,0.03649118965839685,0.00036640625664749606,0.0002550073977096988,0.0015891143547877896,0.0007725645450425757,0.035680394287419884,0.019730162083848972,0.031167095775145752,0.002151774280904949,0.00030497233654382154,0.814555318928492,1
0.0007680188020254607,0.016503886756306912,0.03961212291392362,0.00018489325112662605,0.03647457313453455,0.0003659972945049905,0.00025396964157558985,0.0017519985761535284,0.0007746429443734664,0.03560496564541481,0.0195546970108559,0.03112072736973414,0.002150568330171291,0.0003056391077146234,0.8145732992215845,1
0.0007705125426322456,0.016570233751089625,0.0396184824368322,0.00018552260658301472,0.036482881396465695,0.0003665075045565628,0.00025319227248609295,0.0017792783725773787,0.000772702384269982,0.03556717780721733,0.019575221595082144,0.03112072736973414,0.002153458857999824,0.0003062538967251829,0.8144778472057486,1
0.0007712263642929237,0.016474447072474755,0.039605885689532494,0.000185407671100731,0.03647457313453455,0.0003671189625172021,0.0002538407120680636,0.001494032345892983,0.0007707618241664978,0.03555218029945024,0.019606209692835504,0.031043496876305053,0.0021515302753090334,0.00030574207237818056,0.8149435470071418,1
0.0007707512557200697,0.016555442105066643,0.039630956885614445,0.0001854645809026385,0.03655814447513615,0.0003670157293550164,0.00025416429985165905,0.0014667525494691327,0.0007728429262273373,0.03558232234937429,0.019523708913102535,0.030958588497564297,0.002148644439895807,0.0003054851605477516,0.8149197158321722,1
0.000772772205356795,0.01671743217025041,0.039750197940150535,0.00018718191786608226,0.03659154042995744,0.0003655903176156039,0.00025409983509789587,0.001629901623227342,0.0007725645450425757,0.035544681545566705,0.019606209692835504,0.031074358964322524,0.002151051648947816,0.0003065108085556118,0.8142759063552072,1
0.0007744362441631812,0.016695316505322837,0.039844245500087194,0.0001876963378401872,0.036507969089355864,0.00036406365796712477,0.0002546180811575605,0.0015756068827720876,0.0007675753055564588,0.035446609607521114,0.01969917398609561,0.031220991519098212,0.0021522529072661666,0.00030712559756617124,0.8142023187782302,1
0.0007733655116721638,0.016606997453826367,0.039750197940150535,0.00018655256240969348,0.036507969089355864,0.00036518334072621736,0.0002553309854932942,0.0014397376054377288,0.0007659104239077871,0.03539382426155654,0.019533971205215668,0.031197957863163227,0.0021493670718529404,0.0003065617910589265,0.814767072894173,1
0.0007720583836961168,0.016599673434921785,0.03963731640852303,0.00018603702655711977,0.03662493638477875,0.00036722021042626904,0.0002553309854932942,0.0014667525494691327,0.0007693780264325369,0.03537867971939958,0.019368969645749693,0.03106668107901086,0.002147682494758065,0.00030579305488149524,0.8150534905959023,1
0.0007708694534625846,0.016489095110283923,0.039587051717841666,0.000185407671100731,0.036533056782246005,0.00036752593940658865,0.000255071862463462,0.0015756068827720876,0.0007715942649908335,0.03537867971939958,0.01944120813336955,0.030981772700270103,0.002147682494758065,0.0003051262837106933,0.8152102509839242,1
0.0007696805232290523,0.01636401235605072,0.03944909899013222,0.0001842058699898611,0.036407781224891946,0.0003669144814459494,0.00025487720418739283,0.0016026218268034675,0.0007710402053512595,0.03546925290356162,0.019461732717595815,0.03097394426818763,0.0021491277586723314,0.0003052802308775651,0.8154704294390231,1
0.0007708694534625846,0.016496562737402323,0.03945533621452334,0.00018472140584243482,0.0365830692609296,0.00036722021042626904,0.0002545536164037973,0.0016026218268034675,0.0007713158838060719,0.03552203824952619,0.019451470425482682,0.03105117476161672,0.002150568330171291,0.0003061009492152388,0.815032376674388,1
0.000772772205356795,0.016621789099849356,0.03961212291392362,0.00018603702655711977,0.03673359541827049,0.0003683398931853618,0.0002547482746798664,0.00161639415121164,0.0007718726461755954,0.03549939495348568,0.019544434718742766,0.031128405255045805,0.0021493670718529404,0.00030635686138874005,0.8144343695102743,1
0.0007721765814386318,0.016548118086162054,0.03954314655006889,0.0001854645809026385,0.0365998486918886,0.0003685443742566145,0.0002551375912320047,0.0015891143547877896,0.0007715942649908335,0.035544681545566705,0.0195546970108559,0.03111304948442247,0.0021474431815774555,0.0003053831955411222,0.8147016005063082,1
0.0007712263642929237,0.016489095110283923,0.03948052970912276,0.0001842638956702373,0.036499660827424694,0.0003668132335368825,0.0002549429329559356,0.001480524873877281,0.0007695158656599432,0.03557482359549075,0.019544434718742766,0.031074358964322524,0.0021474431815774555,0.0003044595125398915,0.8150579072145021,1
0.000772297096783941,0.016518678402329904,0.039587051717841666,0.00018449265075633607,0.03655814447513615,0.0003652865738884033,0.0002542300286202018,0.0012495735876481156,0.0007666050255047166,0.03549189619960213,0.019606209692835504,0.031097543167028334,0.0021493670718529404,0.0003051262837106933,0.815093498026461,1
0.000773129116187134,0.016526002421234483,0.0395557432973686,0.00018517891601463224,0.036574760998998444,0.0003662017755762432,0.0002537762473143004,0.0011001968382980786,0.0007661888050925486,0.03543911085363756,0.019595947400722392,0.031027990558910912,0.0021512909621284244,0.00030594700204836705,0.8153785348064678,1
0.0007705125426322456,0.016452331407547184,0.039392719373577204,0.00018437771527405234,0.036499660827424694,0.00036762718731565564,0.00025429449337396496,0.001181506522784713,0.0007672969243716971,0.03543911085363756,0.019368969645749693,0.03081963382810028,0.0021474431815774555,0.0003045114947001339,0.8160500040019335,1
0.0007667093564466193,0.01631245700729099,0.039279715543432236,0.00018266149418907741,0.0364327060106854,0.0003685443742566145,0.0002548127394336296,0.0012495735876481156,0.0007670212459168845,0.03535618345774893,0.019131528377249914,0.030696034929259576,0.0021407048731979543,0.0003027680930181571,0.8167585789102259,1
0.0007663547632190744,0.01625343403141286,0.03924840712295917,0.00018237471342260237,0.036424397748754264,0.00036935832803538767,0.0002551375912320047,0.0013716705405743262,0.0007686834248356072,0.03532589437343501,0.019162516475003277,0.030719219131965382,0.002139982241240821,0.0003031269698552154,0.816709442544055,1
0.0007678982866801514,0.016349220710027732,0.03934881420580443,0.00018317591416318232,0.036499660827424694,0.00036884811798381517,0.00025520205598576794,0.001629901623227342,0.0007729807654547437,0.03546925290356162,0.01933798154799633,0.030804127510706138,0.0021428680766540477,0.000303844723529332,0.8157662227308007,1
0.0007681369997679756,0.016452331407547184,0.03943662454134998,0.00018369145001575606,0.0365496733061083,0.00036793291629597525,0.0002547482746798664,0.0016569165672587218,0.0007733969858669116,0.03553703575729327,0.019420482327729322,0.030873680118823556,0.002143112082249963,0.00030410163535976093,0.8152781356296535,1
0.0007693259300015077,0.016503886756306912,0.03943026501844139,0.0001842058699898611,0.0365830692609296,0.0003684411410944288,0.00025442342288149137,0.0013716705405743262,0.000770348306484279,0.035529537003409724,0.019492720815349175,0.03091989797746435,0.002144552653748923,0.00030481838937694973,0.815372836913947,1
0.0007702761471472156,0.016540650459043654,0.03945533621452334,0.00018466449604052733,0.03661662812284759,0.00036864562216568146,0.0002546180811575605,0.0012495735876481156,0.0007706239849390913,0.035642606449222416,0.019626935498475752,0.030958588497564297,0.002148644439895807,0.0003051262837106933,0.8151070821156182,1
0.0007686121083408296,0.0164375397615242,0.039461695737431926,0.00018403402470566985,0.0365496733061083,0.00036722021042626904,0.0002542300286202018,0.0012087863192085633,0.0007710402053512595,0.035642606449222416,0.019616673206362623,0.03094308218017016,0.002147921807938674,0.0003044595125398915,0.815342425142049,1
0.0007676618911951215,0.01635654472893231,0.039417790569659154,0.00018306209455936737,0.0364327060106854,0.0003665075045565628,0.00025351586026968844,0.001181506522784713,0.0007693780264325369,0.03547675165744516,0.019461732717595815,0.03093540429485849,0.0021435907086111805,0.0003039986706962038,0.8159498487417183,1
0.0007686121083408296,0.01641556770481044,0.03943026501844139,0.00018294715907708363,0.036407781224891946,0.0003670157293550164,0.0002540353703441327,0.001480524873877281,0.0007707618241664978,0.03549939495348568,0.01938949422997596,0.030966266382875966,0.0021423894502928297,0.0003042036003663902,0.8156207403696986,1
0.0007684939105983147,0.01640077605878746,0.0394428617657411,0.00018323282396508987,0.03645779370357555,0.0003674227062444029,0.000255071862463462,0.0017384911041378264,0.0007724267058151693,0.03558232234937429,0.019420482327729322,0.03093540429485849,0.002143112082249963,0.0003039986706962038,0.8152281096337634,1
0.0007677800889376366,0.01638598441276447,0.0394428617657411,0.0001828902492751761,0.03644117717971325,0.0003674227062444029,0.0002545536164037973,0.0015618345583639152,0.0007696537048873495,0.03545410836140465,0.019420482327729322,0.03088903588944688,0.0021433513954305715,0.00030358881135583075,0.8156152749323017,1
0.0007676618911951215,0.01641556770481044,0.03944909899013222,0.0001828902492751761,0.03639100179393295,0.00036671000037469666,0.0002537762473143004,0.0014532450774534307,0.0007678509840112714,0.03535618345774893,0.01937923193786283,0.03088903588944688,0.0021423894502928297,0.0003039986706962038,0.8158813576554527,1
0.0007678982866801514,0.01640077605878746,0.0394428617657411,0.00018357651453347235,0.03644117717971325,0.00036671000037469666,0.00025429449337396496,0.0016569165672587218,0.0007702077645269235,0.03543911085363756,0.019368969645749693,0.03091989797746435,0.0021402215544214296,0.0003042036003663902,0.8155431777373708,1
0.0007678982866801514,0.016408100077692042,0.03943026501844139,0.00018380526961957107,0.036574760998998444,0.0003677284352247225,0.0002549429329559356,0.001697703835698274,0.0007700699252995174,0.035529537003409724,0.019410220035616186,0.030958588497564297,0.0021416668183356965,0.00030404965319951843,0.8152006632112645,1
0.0007673049803647824,0.016467123053570173,0.03943662454134998,0.0001835196047315648,0.0365998486918886,0.0003683398931853618,0.00025487720418739283,0.0015213121423168334,0.0007686834248356072,0.03556717780721733,0.019472196231122913,0.030966266382875966,0.00214575860448258,0.0003044595125398915,0.815176507925331,1
0.0007658773370434261,0.01639345203988287,0.03942402779405028,0.00018311900436127486,0.03654136504417715,0.00036884811798381517,0.00025520205598576794,0.0016569165672587218,0.0007728429262273373,0.0356199631531819,0.019492720815349175,0.03091989797746435,0.002145035972525447,0.0003043575475332621,0.8151563736469752,1
0.000764570209067379,0.01627554969634043,0.039392719373577204,0.00018260346850870109,0.036507969089355864,0.0003696640570157073,0.0002559794250752648,0.00195593491835129,0.0007769997248891186,0.035680394287419884,0.019492720815349175,0.03088903588944688,0.0021440740273877047,0.0003031779523585301,0.8150086070658569,1
0.0007648089221552033,0.01632710504510016,0.03938635985066862,0.00018266149418907741,0.036533056782246005,0.0003695608238535214,0.00025649767113492943,0.00195593491835129,0.0007753375459703959,0.035710536337343946,0.019513446620989406,0.03091989797746435,0.0021467205496203223,0.0003031269698552154,0.8148549484910576,1
0.0007664729609615894,0.0164375397615242,0.03943662454134998,0.00018369145001575606,0.0365496733061083,0.000369052599055068,0.0002562385481050971,0.0018062933166087829,0.0007731186046821501,0.0357180350912275,0.019513446620989406,0.030997128470893438,0.0021464812364397133,0.0003039986706962038,0.8147422048213429,1
0.0007674231781072975,0.016452331407547184,0.03950560090520471,0.00018397711490376236,0.036533056782246005,0.0003685443742566145,0.0002555913725379062,0.0017927858445930809,0.0007742267239612985,0.035710536337343946,0.019482458523236042,0.031043496876305053,0.002143112082249963,0.00030374275852270257,0.8146831157189844,1
0.0007659978523887353,0.01633457267221856,0.03948052970912276,0.00018311900436127486,0.03647457313453455,0.0003674227062444029,0.00025539671426183703,0.0018335731130326332,0.0007735348250943179,0.035642606449222416,0.019420482327729322,0.030927726409546837,0.0021404655600173452,0.0003028710576817142,0.8150971284645433,1
0.0007635017941791562,0.01620934630977153,0.039392719373577204,0.00018243273910297864,0.036449485441644405,0.0003671189625172021,0.00025520205598576794,0.001697703835698274,0.0007700699252995174,0.035544681545566705,0.01927600535248961,0.0308349895987236,0.0021378143453694215,0.0003024601986844135,0.8158164685213902,1
0.000762669774775963,0.01625343403141286,0.0393801226262775,0.0001824896489048861,0.03645779370357555,0.0003678316683869083,0.0002549429329559356,0.001711211307713976,0.0007699320860721111,0.03549189619960213,0.019183242280643508,0.030858173801429405,0.002136373773870461,0.00030210232150428294,0.8158877838428745,1
0.0007637381896641859,0.01640077605878746,0.0394428617657411,0.00018317591416318232,0.036533056782246005,0.00036793291629597525,0.00025520205598576794,0.001969442390366992,0.0007751970040130405,0.03555218029945024,0.01932771925588322,0.03088903588944688,0.002139020296103079,0.00030220428651091225,0.815098456895342,1
0.000764570209067379,0.016430215742619613,0.03948052970912276,0.00018357651453347235,0.0365830692609296,0.0003678316683869083,0.0002557203020454325,0.0020510169272460964,0.0007768618856617124,0.035665249745262924,0.019399957743503057,0.03086600223351189,0.0021411834995591723,0.0003028190755214718,0.8147313954830285,1
0.0007635017941791562,0.016319781026195572,0.03943662454134998,0.0001830040688789911,0.03655814447513615,0.000369052599055068,0.0002562385481050971,0.0019286551219274398,0.0007720104854030015,0.03558982110325785,0.019245017254736246,0.030773265422688663,0.002139498922464297,0.00030266612801152775,0.815362718508611,1
0.0007636199919216711,0.01636401235605072,0.03943662454134998,0.0001830040688789911,0.036516277351287,0.00036976530492477427,0.00025643320638116626,0.0019013753255035894,0.000770348306484279,0.0354239663114806,0.019203766864869753,0.030788771740082804,0.00213878098292247,0.0003028710576817142,0.8155803825901805,1
0.0007667093564466193,0.016577557769994214,0.039530672101286655,0.00018432080547214484,0.03656645273706729,0.00036864562216568146,0.00025610961859757087,0.0018335731130326332,0.0007739510455064859,0.035529537003409724,0.01944120813336955,0.030958588497564297,0.0021426287634734387,0.0003041526178630756,0.8147658928147506,1
0.0007689690191711687,0.016651228783681516,0.03965602808169639,0.00018489325112662605,0.03667511177055904,0.0003684411410944288,0.00025539671426183703,0.0016569165672587218,0.0007736726643217242,0.035680394287419884,0.019616673206362623,0.031082036849634193,0.0021464812364397133,0.0003045114947001339,0.814179244932272,1
0.0007678982866801514,0.016548118086162054,0.03964355363291415,0.00018443462507595975,0.03667511177055904,0.000369052599055068,0.00025520205598576794,0.0016026218268034675,0.000770348306484279,0.03563510769533886,0.019544434718742766,0.03101263478828758,0.0021455145988866654,0.00030358881135583075,0.8145423781976684,1
0.0007664729609615894,0.016489095110283923,0.03951807535398694,0.00018437771527405234,0.0365830692609296,0.0003691538469641348,0.00025585049556773855,0.0017384911041378264,0.0007720104854030015,0.035627608941455315,0.019492720815349175,0.03094308218017016,0.002144552653748923,0.00030374275852270257,0.8148116963172449,1
0.0007664729609615894,0.016503886756306912,0.03944909899013222,0.0001842638956702373,0.0365998486918886,0.000369866552833841,0.0002561740833513339,0.0018470805850483352,0.0007746429443734664,0.035695391795186986,0.019513446620989406,0.030981772700270103,0.002144313340568314,0.00030379374102601725,0.8146099463413926,1
0.0007652840307280571,0.0164375397615242,0.03943662454134998,0.0001838632952999473,0.03670850772538035,0.0003707837397747999,0.0002557203020454325,0.0018335731130326332,0.0007722861638578141,0.03558232234937429,0.01937923193786283,0.030927726409546837,0.002139020296103079,0.0003024601986844135,0.8149050561354354,1
0.0007638587050094953,0.016445007388642602,0.039417790569659154,0.0001841489601879536,0.03673359541827049,0.00037068050661261413,0.00025520205598576794,0.0017384911041378264,0.0007695158656599432,0.03538632550767299,0.01919350457275664,0.030773265422688663,0.0021342058779990616,0.0003018963921771687,0.8155325116525396,1
0.0007651658329855425,0.016651228783681516,0.039411431046750565,0.0001849501609285336,0.0367168159873115,0.00036935832803538767,0.00025487720418739283,0.0016706888916668942,0.0007725645450425757,0.03538632550767299,0.01919350457275664,0.030711541246653717,0.0021344451911796706,0.00030220428651091225,0.8154748984146362,1
0.0007665911587041043,0.016724756189154994,0.03943026501844139,0.0001849501609285336,0.03670003655635251,0.0003681354121141091,0.0002545536164037973,0.0016841963636825964,0.0007749213255582281,0.035529537003409724,0.01928626764460274,0.030788771740082804,0.002135651141913328,0.0003023582336777842,0.8150690084349734,1
0.0007655227438158815,0.016570233751089625,0.0394428617657411,0.00018397711490376236,0.0365830692609296,0.0003685443742566145,0.00025487720418739283,0.0019286551219274398,0.0007740888847338922,0.035627608941455315,0.01933798154799633,0.030842818030806084,0.0021375750321888124,0.00030266612801152775,0.8148795200979566,1
0.000764570209067379,0.016503886756306912,0.03943026501844139,0.00018363342433537984,0.036524585613218155,0.00036945957594445444,0.0002555913725379062,0.0020915393432931785,0.0007746429443734664,0.035642606449222416,0.019399957743503057,0.030827311713411944,0.002138536977326555,0.0003028710576817142,0.8147905418013361,1
0.0007651658329855425,0.016643761156563106,0.0394428617657411,0.00018449265075633607,0.03661662812284759,0.0003683398931853618,0.00025520205598576794,0.001697703835698274,0.0007721483246304078,0.03556717780721733,0.019358506132222595,0.03081963382810028,0.0021373357190082034,0.0003028190755214718,0.8150682237995366,1
0.0007652840307280571,0.016710108151345826,0.03945533621452334,0.00018489325112662605,0.03665002407766889,0.00036722021042626904,0.00025416429985165905,0.001140984106737631,0.0007657725846803808,0.03543911085363756,0.01922449267051,0.030827311713411944,0.0021346891967755854,0.000302512180844656,0.8157780964577316,1
0.0007648089221552033,0.016592205807803385,0.03942402779405028,0.00018397711490376236,0.0365998486918886,0.0003683398931853618,0.0002544891516500341,0.0012087863192085633,0.0007656347454529747,0.03538632550767299,0.019121266085136784,0.03081963382810028,0.0021308367238093108,0.00030220428651091225,0.8160776151284715,1
0.0007652840307280571,0.016452331407547184,0.03938635985066862,0.0001834046692492811,0.0365496733061083,0.0003692570801263207,0.0002557203020454325,0.001629901623227342,0.000770348306484279,0.03539382426155654,0.019111003793023655,0.030804127510706138,0.0021301140918521776,0.00030240921618109875,0.8158962405504956,1
0.0007663547632190744,0.016548118086162054,0.03945533621452334,0.00018397711490376236,0.036533056782246005,0.0003687468700747484,0.00025565583729166935,0.0017519985761535284,0.0007707618241664978,0.03537118096551603,0.019121266085136784,0.030788771740082804,0.0021332439328613194,0.0003029730226883436,0.8156485581849741,1
0.0007678982866801514,0.016798427202842296,0.039587051717841666,0.00018466449604052733,0.03661662812284759,0.00036864562216568146,0.00025487720418739283,0.001697703835698274,0.0007709023661238532,0.03541646755759705,0.019172778767116393,0.030788771740082804,0.0021339665648184526,0.00030358881135583075,0.8151376277046021,1
0.0007707512557200697,0.016901537900361748,0.03964355363291415,0.00018535076129882347,0.03670850772538035,0.0003692570801263207,0.00025520205598576794,0.001765770900561701,0.0007750591647856344,0.03552203824952619,0.019348243840109466,0.03088903588944688,0.002136129768274546,0.00030481838937694973,0.8144247433861314,1
0.000772772205356795,0.01688688986255258,0.03965602808169639,0.0001857513616691135,0.03668342003249019,0.00036884811798381517,0.00025539671426183703,0.0018335731130326332,0.0007757537663825639,0.03559746689153126,0.019544434718742766,0.031027990558910912,0.0021421454446969145,0.0003054851605477516,0.8139640439701444,1
0.0007715832751232628,0.01691632954638473,0.0396184824368322,0.00018580827147102102,0.03667511177055904,0.0003685443742566145,0.0002544891516500341,0.001629901623227342,0.0007710402053512595,0.035559679053333786,0.01944120813336955,0.03094308218017016,0.0021404655600173452,0.00030410163535976093,0.8144201727828939,1
0.0007695623254865375,0.016901537900361748,0.0395557432973686,0.00018580827147102102,0.03670003655635251,0.000369866552833841,0.0002548127394336296,0.001480524873877281,0.0007690996452477752,0.03540132301544009,0.019183242280643508,0.030765587537376998,0.0021332439328613194,0.0003031269698552154,0.8152264841013899,1
0.0007698010385743619,0.016842658532697438,0.0395557432973686,0.00018535076129882347,0.03664155290864106,0.00037027352972322753,0.00025578476679919565,0.0015618345583639152,0.0007711780445786656,0.03540132301544009,0.019203766864869753,0.030827311713411944,0.0021337272516378436,0.0003039986706962038,0.8151756950458989,1
0.0007715832751232628,0.016813218848865278,0.03961212291392362,0.000185007070730441,0.03665002407766889,0.0003681354121141091,0.00025520205598576794,0.0015891143547877896,0.0007721483246304078,0.03555218029945024,0.019420482327729322,0.030989450585581772,0.002139020296103079,0.0003049213540405068,0.8145773888032655,1
0.0007718219882110869,0.016842658532697438,0.03962471966122332,0.00018569445186720598,0.03665002407766889,0.000367321458335336,0.00025487720418739283,0.0015483270863482373,0.0007709023661238532,0.035559679053333786,0.019399957743503057,0.030958588497564297,0.002138536977326555,0.0003043575475332621,0.8146225333540763,1
0.0007698010385743619,0.01684998255160202,0.03957457726905943,0.00018563642618682976,0.03655814447513615,0.0003687468700747484,0.00025546117901560026,0.0015348196143325353,0.0007696537048873495,0.03545410836140465,0.019296731158129857,0.030827311713411944,0.0021344451911796706,0.0003035368291955884,0.8151170436178092,1
0.0007692054146561984,0.016842658532697438,0.03954950607297748,0.00018466449604052733,0.03654136504417715,0.00036976530492477427,0.00025552564376936333,0.0016026218268034675,0.0007710402053512595,0.03547675165744516,0.019399957743503057,0.030842818030806084,0.002136129768274546,0.00030404965319951843,0.814953940605374,1
0.0007714650773807478,0.01688688986255258,0.039605885689532494,0.0001854645809026385,0.03662493638477875,0.00036976530492477427,0.0002553309854932942,0.0017384911041378264,0.0007746429443734664,0.035612464399298355,0.019492720815349175,0.031004956902975913,0.002140944186378563,0.0003053312133808798,0.8142307105485406,1
0.000773247313929649,0.01697520891404905,0.0396812215762958,0.00018672440769388474,0.03670003655635251,0.000369866552833841,0.0002552665207395311,0.0018470805850483352,0.0007751970040130405,0.03567274849914647,0.019492720815349175,0.031097543167028334,0.0021426287634734387,0.0003055361430510663,0.8137249731809959,1
0.0007714650773807478,0.01692365356528932,0.03965602808169639,0.00018609505223749599,0.036658332339600044,0.00036976530492477427,0.00025520205598576794,0.0017927858445930809,0.0007718726461755954,0.035514392461252764,0.019265743060376494,0.030981772700270103,0.00213878098292247,0.00030430656502994743,0.8144098042622651,1
0.0007684939105983147,0.016724756189154994,0.03959964846514137,0.00018512200621272483,0.0365496733061083,0.0003691538469641348,0.0002549429329559356,0.001629901623227342,0.0007699320860721111,0.03531839561955146,0.018811787550431117,0.0308349895987236,0.002131559355766444,0.0003032299345187725,0.8157484135745734,1
0.0007676618911951215,0.016673200840395266,0.03957457726905943,0.000185407671100731,0.036533056782246005,0.0003682386452762949,0.0002546180811575605,0.0014667525494691327,0.0007702077645269235,0.03531839561955146,0.01853309589206483,0.03079644962539447,0.002127711575215475,0.0003028710576817142,0.8163277547356655,1
0.0007671867826222676,0.016754339481200968,0.03950560090520471,0.00018598011675521227,0.03662493638477875,0.0003684411410944288,0.0002547482746798664,0.0015756068827720876,0.0007720104854030015,0.035446609607521114,0.01853309589206483,0.03075790965206533,0.0021293961523103505,0.0003023582336777842,0.8160217800078493,1
0.0007662342478737652,0.016695316505322837,0.03943662454134998,0.00018517891601463224,0.0366332446467099,0.00037017228181416065,0.00025520205598576794,0.0018335731130326332,0.0007740888847338922,0.03553703575729327,0.01854335818417796,0.03074240333467119,0.002129874778671569,0.00030194837433741113,0.8157957443780111,1
0.0007661160501312503,0.016577557769994214,0.03942402779405028,0.00018403402470566985,0.03656645273706729,0.00037068050661261413,0.0002553309854932942,0.0017249836321221487,0.0007742267239612985,0.035506893707369216,0.018491845502198352,0.03078094330800033,0.002126744937662427,0.00030210232150428294,0.8161480599991273,1
0.0007657591393009113,0.016592205807803385,0.03942402779405028,0.0001841489601879536,0.0365496733061083,0.0003699678007429079,0.0002555913725379062,0.001697703835698274,0.0007745051051460601,0.035506893707369216,0.018471119696558104,0.030765587537376998,0.0021260269981205997,0.00030240921618109875,0.8162143797228181,1
0.0007646907244126883,0.016673200840395266,0.03942402779405028,0.00018466449604052733,0.036608156953819755,0.00037037676288541354,0.0002561740833513339,0.00195593491835129,0.0007742267239612985,0.035559679053333786,0.018440131598804744,0.030788771740082804,0.0021286735203532173,0.000302255269014227,0.8157690355211433,1
0.0007639769027520102,0.016629113118753935,0.03943026501844139,0.00018437771527405234,0.036574760998998444,0.00037027352972322753,0.0002561740833513339,0.0018878678534878875,0.0007713158838060719,0.03549189619960213,0.018440131598804744,0.030842818030806084,0.002129874778671569,0.00030194837433741113,0.8159252059131896,1
0.0007643338135823492,0.016533326440139072,0.03943662454134998,0.0001841489601879536,0.03645779370357555,0.0003685443742566145,0.00025546117901560026,0.0015618345583639152,0.0007700699252995174,0.03533354016170842,0.018409344722465366,0.03079644962539447,0.0021286735203532173,0.0003018963921771687,0.8166979580821307,1
0.0007644520113248641,0.016570233751089625,0.03943662454134998,0.00018437771527405234,0.03645779370357555,0.0003678316683869083,0.0002550073977096988,0.0016569165672587218,0.0007721483246304078,0.03534853766947552,0.018275130039338786,0.03072689701727705,0.002126988943258342,0.0003018963921771687,0.8167551642578733,1
0.000764570209067379,0.016599673434921785,0.03946793296182305,0.00018449265075633607,0.0365496733061083,0.00036864562216568146,0.000255071862463462,0.0019421625939431417,0.0007743672659186538,0.03547675165744516,0.018295654623565052,0.03078094330800033,0.0021281902015766936,0.0003019993568407258,0.8161098709454042,1
0.000764570209067379,0.016548118086162054,0.03946793296182305,0.00018443462507595975,0.036507969089355864,0.0003685443742566145,0.00025487720418739283,0.0018878678534878875,0.0007736726643217242,0.03543146506536414,0.01832664272131841,0.030773265422688663,0.0021286735203532173,0.0003020503393440405,0.8162799158631936,1
