AF3,F7,F3,FC5,T7,P7,O1,O2,P8,T8,FC6,F4,F8,AF4,eyeDetection
0.004128652328484298,0.09140125793369498,0.21461481195422955,0.001021442822957596,0.19888700275295332,0.001949187254561238,0.0013726907768035056,0.010563612464540994,0.004180699148340142,0.19233577575006,0.10193232501625096,0.1644488739180482,0.011529028459203223,0.0016346394198717919,0
0.004133268161320094,0.09127305879470395,0.2154613814826116,0.0010243241156711255,0.19866386854001997,0.001954656481109949,0.001376504662615276,0.010294815990541568,0.0041747241410359966,0.19188169071221234,0.10179797865593317,0.16478000170548776,0.01155024648079741,0.0016334800759397663,0
0.004144241916533005,0.09158984335439245,0.21593375038837298,0.0010307414794724955,0.19855256832629967,0.0019547047265934085,0.0013785175981386795,0.009061357125086192,0.004177395323903702,0.1918435510090314,0.10186188772520877,0.16527267405112336,0.011559693711737505,0.0016390732641061666,0
0.0041326086702599945,0.09170176688850677,0.21532846377961892,0.001027219385686884,0.19852087597362325,0.0019475033402310711,0.0013745740393121713,0.0091061313997114,0.004178615832028563,0.19230499989657193,0.10199029496677431,0.1652163505911342,0.01153275270539329,0.001637842531147162,0
0.00412692217049116,0.09164700251998652,0.2149289209309556,0.0010238201892961147,0.19876323469531795,0.0019507492829845803,0.0013727012906781175,0.008659898527625512,0.004166379209588745,0.19288296996922916,0.10215228613713917,0.16515998482758976,0.011527158484602963,0.0016379717645146437,0
0.004139846279774702,0.09151806680284469,0.21539240089410622,0.0010298665054168615,0.19951465424292672,0.001960453114227768,0.0013773792819975579,0.0071519530669050604,0.0041738840273516,0.1928876846283713,0.10229518498199439,0.16534819302870504,0.011569507380942345,0.0016409257644355853,0
0.004151272110557076,0.09153283190312968,0.2158488877024521,0.0010322565341785775,0.19997710160885065,0.0019640164138426475,0.0013793560552526098,0.007027914345873125,0.004201716022406824,0.19301811668668062,0.10167098018441856,0.16495646696924135,0.011598999800937265,0.0016400836621790565,0
0.004160460994336599,0.09200550150259698,0.21578629316219558,0.0010273150290311204,0.20009092817436183,0.0019630240439431398,0.0013780659390304803,0.0068816942230892995,0.004193334708176164,0.1933718836600771,0.10114342372507588,0.16476121023660295,0.011595102125157053,0.0016417624763259795,0
0.004158900003024794,0.09227737248495842,0.21553542384804925,0.0010245892039498702,0.200076271424659,0.001963086517259745,0.0013801577848593424,0.005917515117439135,0.004164694589932812,0.19322778097946897,0.10176370879585143,0.1652625161046227,0.011602066212964597,0.001645916932959764,0
0.004152548557201886,0.0921762687489727,0.21524017214510796,0.0010245776565454068,0.19967948416341222,0.001958426213976294,0.0013791084000655917,0.0059819198838966005,0.004168135932667792,0.19285114124776823,0.10278660728006092,0.16534573095404634,0.011610524255206253,0.001645354561072106,0
0.004152832049127032,0.09214273716272463,0.2149822168563502,0.001025272566304842,0.19955670165577172,0.001955245902484037,0.0013756766562560891,0.007016346420910645,0.004185747205598417,0.1928643070760652,0.10256932517955593,0.16493707766561355,0.011596900900637674,0.001639612702600112,0
0.004160789595924293,0.0919344737935329,0.21510851323037167,0.0010257452844395813,0.20022743780043387,0.001966718235697037,0.0013811205752844798,0.006974294589431086,0.004190412330578944,0.1933645318028195,0.10158911871283077,0.16483148009137533,0.011604434308944528,0.0016409296483360478,0
0.004166738183668004,0.09158346580332495,0.21519689436275316,0.001023036890988592,0.20072575939447934,0.0019781183568497677,0.0013892600460444385,0.006258958012735762,0.00419691037576516,0.19399024703493015,0.10121218398553491,0.16499792287723006,0.011633426741187187,0.0016470779345085515,0
0.004152908118074477,0.09168227248577372,0.21475676875202176,0.0010183844793265878,0.20028753114477876,0.001971552667953301,0.0013857131403432858,0.007202582324664624,0.0042079825546614815,0.1936759581297894,0.10132730702829158,0.16508322863936026,0.011605357827387799,0.0016424527075731125,0
0.004140084905231943,0.09187187652148004,0.21437337899427347,0.0010169296554115152,0.19961650850981064,0.0019643574876226618,0.0013784345122255762,0.008871282708099407,0.004204189942683607,0.19276591826948555,0.10137743995571918,0.1652248233518701,0.011557180145369397,0.0016375950407168161,0
0.004146970051336082,0.09179542409397334,0.2143552456065595,0.0010183012831699277,0.19961228529495775,0.001967006999556089,0.0013813546567826448,0.008734568589691646,0.004195498434877372,0.1929850501053148,0.10157120512471862,0.16502675781665793,0.011568855495243141,0.0016414764471611638,0
0.004154100398657402,0.0917116327760811,0.21461092880056085,0.0010191557325285208,0.20030194732045922,0.001972480942677898,0.0013888927325311643,0.007728279349480063,0.004206614677004106,0.19386366427629248,0.10134789499814423,0.16444795908096432,0.011603594651874258,0.0016428542627443539,0
0.004153381149841217,0.09166094807158404,0.21491298533321357,0.001019626597728426,0.20082236036620918,0.0019739953731532723,0.00138747432005931,0.007139608209759828,0.004211368764882709,0.19401250882778873,0.10091666211410878,0.1645321769654829,0.011612503654229856,0.0016444002519582597,0
0.004160263054194042,0.09185087021517395,0.21514327329594507,0.0010198534649257282,0.2007114796953573,0.0019748029548748397,0.0013825331521993966,0.006315312407567368,0.004190460467937215,0.19357065159605832,0.10115428879156123,0.16525379679386074,0.011623218906262812,0.001649195204081763,0
0.004162103255348585,0.09207291416641207,0.21510618273829016,0.0010182501649597725,0.2005354065498387,0.0019751887538832975,0.00138340903185318,0.005791421370103671,0.004181674953341763,0.19294951332101978,0.10193434694090794,0.16561038783692672,0.011632762420671093,0.0016464384964433036,0
0.004147023353899315,0.09194277487667095,0.2145639639070005,0.0010156630545232216,0.2002212485679674,0.0019689553645122807,0.0013818673364291547,0.006587157868067582,0.004195666586290476,0.19279249894860534,0.10268068355322948,0.16525592693156835,0.011603927044580669,0.0016426426066554012,0
0.0041437260956169305,0.09214320323145081,0.21396387502997985,0.001016976136821587,0.19925760543733828,0.001960151708383994,0.0013761108942380478,0.007298931082157362,0.004189042665790369,0.19347178224083408,0.10317619572770463,0.164777710475768,0.011578171727644887,0.001646517546271144,0
0.004149164708416727,0.09295663993697159,0.2140160406541939,0.0010209107079144028,0.19852713113628598,0.001957105518386217,0.0013737310225190476,0.007293763257188178,0.004173307587012414,0.1937032688418396,0.1029350568826021,0.16466104375334295,0.01158692571527551,0.0016459102780514382,0
0.0041506716417516335,0.09280052724868071,0.2142569911920654,0.0010211577141806668,0.1986955486973829,0.001961104893761265,0.0013751012230854619,0.007823276410852169,0.004193454281459348,0.19351174710698463,0.10227564469686373,0.1646992855847768,0.011595592110386388,0.0016398971977689212,0
0.004141068324659149,0.09177027763889666,0.21382224502019628,0.001017275081398481,0.19904374079767298,0.001959067886950703,0.0013733514632480908,0.009071339557820786,0.004215118849019945,0.193692316399148,0.10219808098064398,0.1644910038560569,0.011569804157972938,0.0016353099863149368,0
0.004128414520623563,0.09160398671861057,0.21326510442190913,0.001013260545402762,0.19900003989034723,0.001954969238519079,0.0013715685336452355,0.010305190385536086,0.004209722116096894,0.1937501519720486,0.10206851471661,0.1641505114483414,0.011542328619150704,0.0016362368731587286,0
0.00414196291610091,0.09202297550683594,0.21388910914259152,0.0010161543178220517,0.19935979239361631,0.001966979307398255,0.0013780812705304858,0.009691749916818874,0.004197597997862862,0.19348894665819893,0.10128756949613667,0.1643422071816596,0.011575228337316184,0.0016416455571113483,0
0.004168415850306586,0.09213166068295144,0.21507825764604208,0.001021403759007422,0.20017913087766606,0.0019797180042314118,0.0013874739546814506,0.007303921132718116,0.004198703266009017,0.19362428788070563,0.1007834015683518,0.16486933674340917,0.01163102189919336,0.0016432667347264518,0
0.0041649214111908325,0.09223017326671404,0.21544707506240632,0.0010213304032207504,0.20036311837239534,0.0019750134461349734,0.0013872334838935492,0.006330292982583426,0.004201156472297519,0.1934920745043109,0.10111068026485981,0.16501017938117127,0.011625729961183056,0.0016410209876381895,0
0.0041491447562299775,0.09251818981704553,0.2152517012311453,0.0010211985091271771,0.20001033598483636,0.0019668067669608652,0.001382099482012674,0.007115606680352358,0.0041919161109997116,0.19290772855616256,0.10130985658387744,0.16494770432215455,0.011586602271357186,0.0016411089277383985,0
0.00415266153051455,0.09239580655747417,0.21543414645590236,0.0010223749042877568,0.19999745641410768,0.0019706966922723376,0.0013818556241146362,0.006898860597509098,0.004181090831499521,0.19290660148569208,0.10133857484443365,0.1650875123739195,0.011589861772749045,0.001642499915523673,0
0.004157049866757433,0.09199264758048373,0.21562185025313366,0.0010191063037240276,0.19988183340342566,0.001974194804916475,0.001384063468588914,0.005801608459118105,0.004184471837335562,0.19328891080945668,0.10211364908446732,0.16530975223002023,0.011626859375514437,0.001644002523057756,0
0.004143961330870874,0.09187559330868013,0.21511499422449057,0.0010158888398630855,0.19923520439483744,0.001965691894524199,0.0013799824934375867,0.0064478444899308705,0.0041949420089255176,0.19323762217996207,0.10271770925478761,0.1654111629539023,0.011615494189122689,0.0016439084366650573,0
0.004135749128192406,0.09187912178826008,0.21452689117368393,0.0010155458315682835,0.19878284757283574,0.001958863966959907,0.0013778965373813727,0.0084132055350805,0.004192642174746546,0.19293519058480416,0.10249824898377405,0.16507473706936218,0.011570583132871879,0.0016384765204788738,0
0.004135333768451053,0.09149804350861611,0.2142649080516052,0.0010132667426043585,0.19891583013113717,0.001962048692472909,0.001383819411813783,0.009521904520045784,0.0041972839446487095,0.19309881325247133,0.10212718867748767,0.16468970070126795,0.011558606476663673,0.0016332521207143961,0
0.004136341677910562,0.09123677431016515,0.21407123656942734,0.001012456512263472,0.19898822460683704,0.0019681203466614633,0.0013847765078599805,0.008802172978769179,0.004208563514713838,0.19368322879992111,0.1024407328164123,0.16484525552069224,0.011587886281924531,0.00163422955644175,0
0.004141983671095266,0.0920289760484119,0.21426119999187804,0.0010146166952424492,0.19900126660555364,0.0019671644915889835,0.001375491985081753,0.00688649534606658,0.004191721670515724,0.1939998086593025,0.10262045401937477,0.16525454826973823,0.011618951194640468,0.001637321351509714,0
0.0041525234110528055,0.0924565269521474,0.214974957609993,0.0010179966370878388,0.19966418957088583,0.001967038748064606,0.0013768864882568177,0.005869181264395371,0.004182192374474476,0.19369777416803566,0.10188908493310044,0.1654674025602343,0.01164315387921453,0.0016410914030571212,0
0.004159943152811896,0.09169532250710875,0.2156920472851784,0.0010209589839898562,0.2005999220501591,0.0019774874776780555,0.0013887196993922777,0.006119458772974115,0.004204637900482742,0.19327668369034476,0.10103973517146765,0.16552590072212736,0.0116527472933165,0.001646435292968237,0
0.004159284566051105,0.09170152710310965,0.21562787020802884,0.0010203074883978148,0.2005312556244468,0.001977237325400222,0.0013883975984662828,0.00648385740698468,0.0042092501845891125,0.19315820631631087,0.1010265767319769,0.16544524433790664,0.011624927938458532,0.0016460571698726281,0
0.004150366773558331,0.09243304394687796,0.2148043294556747,0.0010172667377268954,0.1997304662196345,0.001962510681507563,0.0013807210497305462,0.007408288816564755,0.004195160847856764,0.19306051332241478,0.10159732592339239,0.165035467366288,0.01158618917137111,0.001638349687401708,0
0.004145677975257281,0.09222776975620925,0.2142247902299785,0.0010159368030339354,0.19946866551843426,0.0019620312807981455,0.0013815347605841742,0.008426808961742414,0.004192640154927448,0.1931239134228988,0.10165315400765043,0.1649631068660189,0.011576190471416533,0.0016377797910500011,0
0.0041485803431916025,0.0916586037014003,0.21470132693634128,0.0010174994388796328,0.19964189886667377,0.001971043690004637,0.0013878357534451513,0.007646605997669777,0.004198564239089673,0.19333743600384945,0.10158271449567362,0.1654627493269058,0.011603669853062423,0.0016414713538129221,0
0.004149056387824458,0.09167142059611928,0.2151276340046901,0.0010197030551722184,0.19955764856510183,0.0019692747984812816,0.0013870864446784662,0.007072702134734222,0.004214819432444373,0.19317309054099335,0.10197921053230097,0.16541523346521064,0.011624101876077791,0.0016390181661708476,0
0.004133777277312178,0.09171936609650506,0.2140981845557507,0.0010168758134015247,0.19942709771600686,0.0019630132578444953,0.0013804010331152517,0.00830266955126944,0.004222373953040724,0.1932052373025818,0.10238443590642562,0.16491386405214373,0.011597668370717781,0.0016350351138846677,0
0.004115904597722294,0.09166224820865879,0.2130746972428727,0.0010098116774758172,0.19916315708953772,0.0019623276383959635,0.0013782008396807433,0.008699051559800447,0.004193490329424479,0.19355071545202598,0.1031744510481979,0.16481659978932733,0.011566208578419442,0.001633135948460235,0
0.0041250960995909275,0.0916537582694684,0.21359215423254743,0.0010089227365112933,0.19850746560732824,0.0019613538757933006,0.0013807968156691753,0.007817647227968178,0.0041806629732089205,0.19378207790743446,0.10377104717424042,0.16500013207952463,0.011584624206711283,0.0016342607940032594,0
0.004137950600173028,0.09131267546421021,0.21423215164829,0.001011258070491497,0.19831317903072418,0.001959052000340075,0.0013787663533534722,0.00782610759297969,0.004190461579853376,0.19370486162254308,0.10343379914739298,0.16526298652579854,0.01159848760834299,0.0016382627555070154,0
0.0041318983094458216,0.09142794928233543,0.21416015337309774,0.0010108535413279906,0.19863874922349445,0.0019563153858872706,0.0013718068478755722,0.0078818102260518,0.004176546248687973,0.19343379947708714,0.10303478942216494,0.16556178377549907,0.011575064461519234,0.0016384804255253876,0
0.0041354892152915025,0.09227015793268047,0.2143783277548069,0.0010128304456151415,0.19931242200792249,0.001963903617299853,0.0013750498347267113,0.007081114695498219,0.004172344923045136,0.19295561361499522,0.10272352658026242,0.1654064234710175,0.011578805978693155,0.0016339899281452462,0
0.00414642158644105,0.09243024893056373,0.21513756931229908,0.0010161894145097835,0.20039156209994544,0.0019825606953019336,0.001385913790053023,0.006530963305024409,0.004196279933517888,0.19306126051764105,0.10171498663371549,0.1647698415253181,0.011602053357662172,0.0016341488980067705,0
0.004151315454824586,0.09178205001670764,0.21582606388750583,0.001018869092127237,0.2010326198297013,0.001992635481340011,0.0013922140857408588,0.006188618757078597,0.004207287096317047,0.19336662889155554,0.10090085780665663,0.16488237209466095,0.011622103543599922,0.001636363962183847,0
0.004148357972473018,0.09156113706462923,0.2156757038336378,0.0010184275081450349,0.20059023187557276,0.0019864806314595297,0.001392664758688839,0.006846896713399914,0.004199000061609911,0.19282059740625546,0.10132396418816841,0.1651919566888047,0.011609753386266883,0.0016348279108884844,0
0.0041334347508926676,0.09193381442274937,0.21484253178509427,0.0010157891416289102,0.1998944467169776,0.0019739321401678737,0.0013866234754499071,0.007981677255286456,0.0041875008540163275,0.19243974377160503,0.10203148183981914,0.16498091129953107,0.011561408538443776,0.0016367040083375157,0
0.004125991812470017,0.09263132499746353,0.21459919395415503,0.001016551258144493,0.19920249581971256,0.001961354391543081,0.0013766738608769497,0.007581219559384973,0.0041754340571581025,0.1927463496786529,0.10239229920373277,0.16500975309888954,0.011542259665072965,0.0016390986427432769,0
0.004147235744910607,0.09313088339458601,0.21503675566675123,0.0010216938230499168,0.19860323595897475,0.0019574114317915904,0.0013711342079062163,0.0066310772281768715,0.004172449664748369,0.1928337661302647,0.1026149189633234,0.165273195791321,0.011567862228978465,0.0016383797652167076,0
0.0041575322398134575,0.09305443557667574,0.215135597683933,0.001024022805625745,0.1986494303372025,0.0019643883522793807,0.001373877507608036,0.007076879373919677,0.004172108459517269,0.19288090420536838,0.10249389501197818,0.16480415284708905,0.011574478313702657,0.0016382972852869554,0
0.004133043723117242,0.0923838305902858,0.21429491365818076,0.001016523304754485,0.19860809915800315,0.0019694261007112677,0.0013778328386136345,0.008455945660014714,0.004175243728598947,0.1930956124598568,0.10274243832086472,0.16456157932113522,0.011549619297546413,0.0016358918383169332,0
0.004119739296781829,0.0917620838167784,0.2137301998549705,0.001008202013555763,0.1979234021810128,0.001970569371606154,0.0013781728099473377,0.009336826984602593,0.004190660827994303,0.19312742965931654,0.10321893967156319,0.1650623502522067,0.01154011727875318,0.0016313059809106574,0
0.004124998130549056,0.09149737048236549,0.21396624533882705,0.0010113661065921065,0.1982088385782307,0.001973219070006125,0.001380793961788148,0.009354584729539496,0.0041926217313127834,0.19324915027563674,0.1029111068851902,0.16495746205079923,0.011541173512787451,0.0016310691463754664,0
0.004121923501205547,0.09172280061698694,0.21411241564127861,0.0010166599270104468,0.19904279111400347,0.001971495237443544,0.0013792804301410763,0.008906947315424962,0.004176627470058113,0.19317576225209324,0.10251448401435898,0.16469285994030566,0.01153306642882675,0.0016328861108625833,0
0.004120884984582821,0.09176557692094416,0.21392317266824787,0.001013452877725722,0.19900761411246654,0.001972348560114166,0.0013762602460564756,0.008976497471936046,0.004182437818475219,0.19277048693831836,0.10264061061347501,0.16508577927769355,0.011534876925775638,0.001630000584188298,0
0.004127824611812327,0.0915288667775314,0.21431233899464477,0.0010116149161559869,0.19866967682979372,0.0019773485383994174,0.0013798094580824447,0.009299318001456449,0.0041968720975162745,0.19275226118109043,0.10222979896217865,0.16534440226539188,0.011541789685992279,0.0016280776799540817,0
0.004135781178081234,0.09186918319792188,0.21536636328910233,0.001017206910052714,0.19944667385513198,0.0019769942277928967,0.0013815612660085937,0.007563615237290917,0.004183644285627241,0.1930217127285581,0.1015729969462875,0.16526261782578772,0.011568602921516456,0.0016330461308403405,0
0.00414189591200911,0.09221281588358714,0.21575100130844865,0.0010190426533825524,0.20079828376951603,0.001980111445505576,0.0013806477198804157,0.005648409347451873,0.0041695095772601425,0.1927048722258234,0.10142378209331915,0.16553617900873777,0.011595324489266496,0.0016381245658117168,0
0.004142516660892136,0.09198430732887637,0.2151389574008197,0.0010194580811132379,0.20079883586564132,0.0019849541702917695,0.001381718730769382,0.006601652474514352,0.004184455361021217,0.19210535755753347,0.1016670118528607,0.16578811156201068,0.011569006381281582,0.0016336565723740332,0
0.004135467862596861,0.09191597502800729,0.21464684417617497,0.001021236505780015,0.19949840518260786,0.0019718226867419565,0.0013777414981745388,0.008048012823998132,0.004186786964020505,0.19227485459657953,0.10203401530170711,0.16572853194257842,0.011532039815294827,0.0016282656157378865,0
0.00413317090742228,0.09225818569528223,0.21500693040418326,0.0010212690846961067,0.1987930605640421,0.001956175700271112,0.0013718159605171812,0.006855759711440888,0.004166998625890273,0.19301105011715883,0.1025545374808617,0.16569039947056224,0.011546183303852356,0.001634462973819646,0
0.0041321301666608894,0.09237404258174903,0.21505826155709798,0.0010189660627868567,0.19848105278274394,0.0019563034601425265,0.0013706793718544256,0.006479029605846979,0.004162149640197198,0.19336473730939127,0.10303197840595438,0.16538464636169006,0.011547642506009217,0.0016383801878751673,0
0.004124108596542076,0.09224339220990596,0.2140390425100828,0.001016310604710922,0.19719636813700164,0.0019619361481428028,0.001373705185277425,0.0090159137395855,0.004171409940232145,0.19295717095436454,0.10352283525677532,0.16523512535523013,0.011512103301700301,0.0016305780604485992,0
0.004116547816568879,0.09204112405375829,0.21374484044350628,0.0010126162305397557,0.19656828374866078,0.001967298965001206,0.0013791066724896832,0.010178755199372507,0.004169141639659422,0.192335581423005,0.1035967323306035,0.16575280207956938,0.011510823988929624,0.0016263454083358935,0
0.004114408878019693,0.0916213642925427,0.21446879440028777,0.0010118602031285388,0.19751937680863696,0.0019742100846516213,0.0013828626391269342,0.008816264682760635,0.004172868028041339,0.19226393973781494,0.1032052851420435,0.16628804442687292,0.01153106473056029,0.0016296559455122352,0
0.004116656731989553,0.09139811977806188,0.2145496919775608,0.001015534097719661,0.19817474362832532,0.0019765848694067623,0.0013824596212599917,0.008756195598675331,0.004185819119436014,0.19283562090189446,0.10263160913207499,0.16582403503012977,0.011524739778172519,0.0016281897352929558,0
0.0041257117945457875,0.09163093746736051,0.21457630817962592,0.0010167018060264206,0.19867555279685956,0.0019835913857343137,0.0013851751656921956,0.008929092093506067,0.004190021911750232,0.19312399007442554,0.1019286184538008,0.16527000752696513,0.011538208311434475,0.0016260830322730835,0
0.0041418049895373225,0.09182770875509745,0.21526934508706352,0.0010175901847459293,0.19984315169733122,0.0019901350028432158,0.001388311920966665,0.006607766478029991,0.004183026735973082,0.19335467883706128,0.10159177416792053,0.1655614476542316,0.011592854040982823,0.0016304044482152976,0
0.004151997968191021,0.09178549706948114,0.21542056546016575,0.0010227611339661859,0.20073229273642676,0.001982515669096923,0.001385551381198067,0.004540577025881603,0.004179547559685364,0.19415007035880638,0.10168784307813414,0.1656985749687095,0.011625846215876106,0.0016363593743810598,0
0.004142902098295905,0.09201407029981078,0.21511270321020962,0.0010254323350552003,0.2009306238684091,0.001979987146529601,0.0013828562015028825,0.004316382410075938,0.0041842357118448345,0.19449310678930556,0.10172988099023476,0.16542037095794246,0.011629368216531256,0.0016380797642520529,0
0.004142674074632109,0.09244987836993657,0.21557153696129588,0.001022638547580882,0.20111153184885622,0.001995142796200613,0.0013861534381116576,0.003734026907552836,0.004191657747740242,0.19391298016723105,0.10162251093407473,0.16556057171456204,0.011659816321650897,0.0016388801705742155,0
0.004153206190960561,0.09237346891466716,0.21560843776043684,0.0010225068526841263,0.20116427374989385,0.0020011542918177525,0.0013871935859857058,0.004483317082671357,0.0042005789571134084,0.19317879731142604,0.10127595627253833,0.16585363844919598,0.011658915529481059,0.001638555051127769,0
0.004140942870260968,0.09216781314256764,0.21454063128205822,0.0010250249868072922,0.20071130820162375,0.0019932303350034195,0.0013824185406117581,0.007345498481071819,0.004206688839395183,0.1928113656014512,0.10101606441610654,0.1654490496905678,0.011578421614967013,0.0016315419975073797,0
0.004119397102303251,0.09238687708251846,0.21413810594109017,0.001023753438008178,0.2002005820819809,0.001991303341325237,0.0013785488139913399,0.008419370541036707,0.004198727269256379,0.19311734523975407,0.10105790999045877,0.16481749243529423,0.0115254015538345,0.0016251851691476916,0
0.0041176802224036765,0.09258421311570136,0.21448872536505822,0.00102275068847348,0.20014211448709296,0.001995194214309549,0.0013786565628172594,0.00761350403776564,0.004196230420451385,0.19344472497522358,0.10114296554781178,0.16470468002330535,0.011540337118575723,0.001628223221010127,0
0.004122929203764189,0.09244867966294995,0.2143293258468076,0.001020984293455991,0.19981172930861407,0.0019916529683018107,0.0013779062854782443,0.00833347139150813,0.004199992344579593,0.19299373739046516,0.10129939254868915,0.16490677866181921,0.01153564934072195,0.0016277707528451813,0
0.0041145574178032265,0.09232791380526159,0.21377099427651508,0.001017113424833393,0.19869102316269432,0.0019766341540228133,0.0013740269516367063,0.009386384623733078,0.004182418291561124,0.19272498018045428,0.10223592311094021,0.16506615694085766,0.011509913423078612,0.0016219602366079006,0
0.004108056417097997,0.09222494798120268,0.21380301751304473,0.001015359258317574,0.19837894547268062,0.00196839117475245,0.0013696928232562423,0.008277489011238683,0.004152347687637858,0.1932015249447546,0.10301178329303286,0.16533999436893307,0.01152304215580409,0.0016254078982465162,0
0.004124713528171447,0.09191598044473524,0.2147344884067918,0.0010182722152841973,0.19920660158482587,0.001981053593788521,0.0013734596369526623,0.006405871480539311,0.004150357925728618,0.19332856178048521,0.10272000802334827,0.1658411632668625,0.0115659844769731,0.0016334836355132625,0
0.00415104688028984,0.09177645714308598,0.21555919089722947,0.0010230450207406722,0.19951812687269996,0.001993870688161135,0.0013840548834277702,0.005777848362043229,0.004174129870101444,0.19290868466097177,0.10225843056020983,0.16623215760682672,0.011606804586053013,0.0016361519681591617,0
0.004142549619855888,0.09212423119220603,0.21511739692328355,0.001022980288945677,0.1990954091226112,0.001984565189364573,0.0013842573111968724,0.0067285498527704405,0.004183592935098173,0.19274939708372807,0.10223364023353917,0.16600205257297784,0.011596645303942766,0.0016347323704798348,0
0.004114475464948889,0.09227416206328634,0.2142005834468118,0.0010194652744443266,0.19886380659577146,0.0019739903694191503,0.0013750307138317025,0.00786206463311292,0.004175835851927009,0.19278613844732526,0.10277666559627673,0.16539787001373868,0.011549975932718533,0.0016299355963872075,0
0.004110335141101063,0.09179769512471046,0.21415447140061653,0.0010167430229789355,0.19869517913578774,0.0019745271268592915,0.001372464081974082,0.008075870208309173,0.004172294933118939,0.19290799144983048,0.10313546688671998,0.16542444264147577,0.011537569538462486,0.0016249493080551963,0
0.004113953078921385,0.0911984935141764,0.2145761832885863,0.0010172192236811413,0.19862451955305097,0.0019730405372650446,0.0013756881430658147,0.008317943296426763,0.00417564403448012,0.19292019410572794,0.10284456071478906,0.16568789449830046,0.011549375751359982,0.0016252902601686847,0
0.004111775355604156,0.09115950747089561,0.21456055177678235,0.0010181137227974245,0.19893526358297214,0.00197256799720913,0.0013730308874865462,0.008841007074162317,0.004182321279758928,0.19300769197853637,0.10220698277706658,0.16545632207126065,0.011546474456239101,0.0016283895692287235,0
0.004119121823959746,0.09180055389236794,0.21409910025301035,0.001018630475897294,0.19908029647875672,0.0019806013008615217,0.001368605816568633,0.008395102372798042,0.004184368004136662,0.19333799646442168,0.1022220551720821,0.16522154363676092,0.011545686065602615,0.001626338242775674,0
0.00412489087406485,0.09266095526763007,0.2138621796984711,0.0010201595216374102,0.19927179230947203,0.0019848614378305245,0.0013719559751693936,0.0077282157163936,0.0041764745795431525,0.19297081683318523,0.10254909676005765,0.16511746658773055,0.011539709908426688,0.0016214245303876594,0
0.004123082366939211,0.0925062814464037,0.21443906514046113,0.0010233567002798062,0.2000316224183241,0.0019848459544483023,0.0013806363275626263,0.00767057347071346,0.0041767163217800544,0.19245763562332346,0.1019352459515647,0.1651069978030841,0.011543097837657475,0.0016208426374579312,0
0.004132852192248687,0.09197147791220016,0.2152111285854745,0.001025878480953562,0.20022285151238414,0.001991355208663691,0.0013875448342143615,0.007565387236046365,0.004190690211792202,0.19253139944517378,0.10108915006199626,0.16546986179616735,0.011583151277059986,0.0016272712456248048,0
0.004139800824798689,0.09225488105001879,0.21560998210081045,0.0010236696645755511,0.19939804982627285,0.001992587471667788,0.0013834763985339717,0.006606650550935626,0.0041906516162397095,0.19249751083300137,0.10157461723391938,0.16608230634121954,0.0116106440367447,0.0016351720512614637,0
0.004130809794165207,0.09260802216469131,0.2152576694015293,0.0010227146756359993,0.19877266411538225,0.0019736558889503894,0.0013706187512525201,0.005971043009436074,0.004171088949906283,0.1923368932224331,0.10287928343112279,0.16630171459699272,0.011569803417651021,0.0016340185808509605,0
0.0041210715862319966,0.09219964376264442,0.21465460026583036,0.0010236294588275197,0.1984412921026749,0.0019607905411880705,0.0013632813936090055,0.0066759352738745385,0.004165096692220055,0.19283042523108962,0.10332848430823058,0.16607974113097576,0.01152935622181393,0.0016266520307891316,0
0.004120709633150657,0.09168823042802254,0.21493135038034447,0.0010211930159683335,0.1982797469330283,0.0019741172191386665,0.0013697630007065108,0.007437814743688149,0.004183931390923742,0.19339301914222817,0.10256461986496974,0.16586157574136165,0.01154913900149367,0.0016247895049753254,0
0.004119262708543177,0.09142832427250759,0.21532287109262552,0.0010193895935174128,0.1987913278649364,0.001982592270393588,0.0013762816159193392,0.00790953620538858,0.004194253721935764,0.19304749842075705,0.10193626376445454,0.16568205488088333,0.011563401209979582,0.0016269423781581326,0
0.004119094530660582,0.09136721754418006,0.21497936021815547,0.0010214469838579618,0.19949254359110238,0.0019736053031474115,0.0013719899108589906,0.00810827870396492,0.00417925480240023,0.19269982855305648,0.1019811649217708,0.1655433298832365,0.011539482162610876,0.0016234028909972416,0
0.00412899334933183,0.09138918592656504,0.21482600611643154,0.0010217715204862941,0.19937403888551392,0.001976701314364539,0.001372033910685635,0.008169266960848971,0.0041729624710477664,0.19240969760145182,0.10233029841774255,0.16567098740322417,0.01153515271255581,0.001622903409750084,0
0.004125269348474707,0.09116989572736571,0.21472960323865883,0.0010187180253390339,0.19864424040042075,0.0019824185842161144,0.0013746933985531165,0.00920582126019155,0.0041862371685296475,0.19220969664635718,0.10239778320501879,0.16578024410935738,0.011546678396377578,0.0016287004911395434,0
0.004103859184498113,0.09112266961950169,0.2142175737788452,0.0010162826116578703,0.19824383133347329,0.001969360186079939,0.00136818090788024,0.00984269540873424,0.004183183234780875,0.1923429994939061,0.10284725957448271,0.16558279433746168,0.011531123678794981,0.0016281866499029574,0
0.004102176382206521,0.09136139350475223,0.21389360805735022,0.0010181677960455142,0.1983404882196602,0.001967080172016411,0.0013645251275128095,0.009245881152806652,0.004177998071186368,0.19233740079814524,0.103481936131407,0.165562355037599,0.011523562819875531,0.001623426729436286,0
0.0041207853645710115,0.0914245739500045,0.21388030513200967,0.0010188833350454425,0.1987215338238815,0.001981642061460946,0.0013703508776121659,0.00891285340659116,0.004189173805597312,0.19248649393036504,0.10308664203004334,0.1656397684238538,0.011543309647193412,0.001623684211770672,0
0.004126970278647269,0.09138976376444684,0.21396099539518143,0.0010166923190923082,0.1996269630686215,0.00198412297915463,0.0013707195212411117,0.008485796110851884,0.004185474662040553,0.19291687825911946,0.10248852042512277,0.16526846537796638,0.011551179551412084,0.0016274582871016782,0
0.0041240792304462655,0.09138607904139853,0.2140455687024172,0.0010155354317518768,0.20074982839985422,0.0019815945420509533,0.0013702032916894705,0.007160426334493937,0.004173555199459708,0.19307544956737072,0.1026405902406775,0.16508176229744362,0.011567503250031759,0.0016278244709142268,0
0.004130356974169913,0.09166557539623922,0.21395757140288224,0.0010153944267800388,0.20073014036374884,0.001989007478865629,0.0013769779400894858,0.006883312808167546,0.004180726256098847,0.19288291018215498,0.10274190218228496,0.16522001878337347,0.011596525145020195,0.0016295806601246967,0
0.0041324942404647805,0.09192215271343745,0.21390084021656175,0.0010160614366209796,0.1999943932278405,0.001989031706785345,0.0013748429826119192,0.007695318434696081,0.004181885371818267,0.19283176697537882,0.10248992064155449,0.16526069157442186,0.011580335410745232,0.0016302650670621695,0
0.0041175287977616975,0.09169164392892934,0.21374120580808836,0.0010176444325677278,0.2000061937265997,0.0019794787112916335,0.0013661951013290853,0.00817847529452532,0.004167886355504796,0.1926672613991653,0.10255808280505568,0.1653546288508737,0.011529877225227471,0.0016238975630800208,0
0.004113000008358069,0.09137516945441497,0.21363664672521815,0.0010162545951670704,0.20005456801431382,0.001980403772875949,0.0013654271479710061,0.008182297307497767,0.004178107596186763,0.19288019815225824,0.10255031141060097,0.16551606516328105,0.011531343290324219,0.001620207361531949,0
0.004131594770565331,0.0914902213797385,0.21404949524818598,0.0010149521598893712,0.19976872866006065,0.001988591331081812,0.0013730445900417719,0.007639231744360252,0.0042005663107262114,0.19343922906302313,0.10221765441258504,0.16547170817503679,0.011588533408788047,0.0016264487459171295,0
0.004144945302274744,0.09177951351291073,0.21446980811232472,0.001017901116718561,0.2000889262588213,0.0019903550915467572,0.001376895555384495,0.006541964270154564,0.004194236103045879,0.1934275010805645,0.102337859397824,0.1653852120434507,0.011611066452537538,0.001633815702441234,0
0.004137857244542443,0.09189188002824987,0.2143158058190405,0.0010173703220434916,0.20041837127755702,0.0019848801884128054,0.0013747809632647771,0.006296054458069846,0.004177682054003773,0.19306216550594604,0.10264660749361897,0.1654649717529811,0.011578588105409942,0.0016329847868593304,0
0.004132930103250033,0.09159356416076894,0.21447209508182855,0.001013035128071061,0.1999355228669938,0.0019841153454216998,0.0013758962048551569,0.007395659174194107,0.004175926054115676,0.19240311659792164,0.1026042121525661,0.165721453427753,0.011562502072991532,0.0016299716292685446,0
0.004127752494604088,0.0913526353353392,0.21460844188049702,0.0010120985498442018,0.19938980394107914,0.0019841137333084027,0.0013737751279119374,0.007544200793062956,0.004175922661134551,0.19236132639066017,0.10277286935624769,0.16609923624519454,0.011570362624396875,0.0016274608667192242,0
0.004115190939521072,0.09159800208029945,0.2140222557784849,0.0010116696331041984,0.19919430389068093,0.001974586634551577,0.0013677749902608045,0.0067868356135440296,0.004174966789748164,0.19317675892624997,0.10329307706192217,0.16609123191971498,0.011566734142358714,0.0016266115995590925,0
0.004108225015135796,0.09167236494536163,0.2134604358715285,0.0010097765422856704,0.199299783536268,0.0019684623991140814,0.0013677486879607526,0.0075745828144289686,0.004173271456389038,0.193190623695175,0.10347606360182568,0.16553452361595378,0.011538684940453712,0.0016254528781194323,0
0.004113518357918475,0.09121730216157814,0.21357394411634767,0.0010080865854129343,0.19913387027713636,0.001974089542946409,0.001372256466530183,0.00888878488023793,0.004166619703099139,0.19245579004427518,0.10342209654806485,0.16552632048675064,0.011523863361879565,0.0016234574678222063,0
0.004114025493922757,0.0909841774667732,0.21363790984590347,0.001006960970384638,0.19856640653521387,0.0019779808429648007,0.0013707945009352965,0.008954570919802767,0.0041714766026632166,0.19274778308042642,0.10350564113488789,0.1658093784675825,0.011528814594312889,0.0016240795442262006,0
0.004108777026721576,0.09118357523634592,0.21352869982153938,0.001006477031849322,0.19860927366117886,0.001973907059760245,0.0013685985146114838,0.00881246682768943,0.004183812964292859,0.193077851586466,0.10343934261174448,0.16554814312325225,0.011532617669726842,0.0016264568648212698,0
0.0041130534111147934,0.09131031412586241,0.213843369967156,0.0010083516190165847,0.19949851888135559,0.001975220636830066,0.001373047941160022,0.008258443061126502,0.004183332542488713,0.19278987306594328,0.1029597875877566,0.16550235565246305,0.011555504185543573,0.0016288273221826627,0
0.004121217067850444,0.09145171100574485,0.2143356617899233,0.0010122224393655907,0.19962156916502144,0.001978579574067262,0.0013743637482636713,0.007460892824785165,0.0041788165145214785,0.19292699916868544,0.10243411339646266,0.1659143717270724,0.011562717368231489,0.0016267642100048232,0
0.004122600330238329,0.09176479782048123,0.21427682931444803,0.0010139216543456186,0.19925440973978478,0.001978606331087594,0.0013745719761566674,0.00759871999657206,0.0041752807096760046,0.1929045683668544,0.10251608394446417,0.16585185985681528,0.011544078497318415,0.0016236714617571518,0
0.004124710850963371,0.0917869328720295,0.2142076120676472,0.0010118440298755632,0.19950706532797732,0.0019831648399156227,0.0013795661524814366,0.007694083700688242,0.004181214377352049,0.1925541368994725,0.10264118125786818,0.16573852034337277,0.011562757300478165,0.0016272099798778851,0
0.004129084121373941,0.09126180554730345,0.21445809631794926,0.001008751518442681,0.19955647458447573,0.001990160755408736,0.0013838259759766467,0.007504563523657043,0.004204045220743472,0.19294210338753365,0.10241277864258264,0.16591442202508905,0.01160012904871437,0.0016337593307491336,0
0.004116107191650293,0.09106679962040796,0.21381918320601875,0.0010083843234896203,0.19923056744444118,0.0019871645572168885,0.0013786892091627808,0.008441778167224863,0.004206129552303539,0.19338520536059048,0.10239653976829734,0.16576176281676783,0.01157050503602621,0.00163118374640251,0
0.004104907965296992,0.09165814441397752,0.21300729226944867,0.0010077788601145724,0.1993401249388192,0.0019796133440189083,0.001370862178936068,0.008621607372481145,0.00417946067622451,0.19313107888665282,0.10290130487817589,0.16553413177470516,0.01153717874749698,0.0016265136936515052,0
0.0041218872801741455,0.09199532797398362,0.21355526676983985,0.0010091018670470994,0.19945265114769312,0.001978464495511912,0.0013692791398557556,0.007456267454546776,0.004173214048897412,0.19297124358002052,0.10287595432574179,0.16585406793274235,0.011558176351168637,0.0016290976327771691,0
0.004129848002196785,0.09160818952069046,0.21444760156698311,0.0010127559109294052,0.1990618625236439,0.0019774731028545404,0.0013684569736835191,0.007393620750492837,0.0041853391629858095,0.19284235096816624,0.10268875987207167,0.16609620689223803,0.011558012383654646,0.001629522369409046,0
0.004117003462380579,0.09144656789932834,0.21418736796200394,0.0010088392601549723,0.19921632969093364,0.0019761203120225684,0.0013680136214071887,0.008111791618273564,0.004181813858653212,0.19225163631189746,0.10297802916719574,0.16599268479716633,0.011536634641997045,0.0016271673965854415,0
0.004116670225910107,0.09172994574557657,0.21352383706946776,0.0010034740314766226,0.1992285811044255,0.0019786570749695284,0.001370991680038921,0.007887217061812031,0.004178663217110245,0.1925027566403969,0.10332934896188037,0.16596868351653524,0.011552978989846419,0.0016281946805537613,0
0.004125663712816199,0.09184543825756274,0.21384911037212986,0.0010094192896782318,0.1987768883250953,0.0019815856370038456,0.001375352269924803,0.006805169077394666,0.004182476665015551,0.19337028579519902,0.10300993422901403,0.16645627127186277,0.011582237882689939,0.0016301672146127816,0
0.004126915441976775,0.09154693266256006,0.21458588238346502,0.001016662445378523,0.19938859698898712,0.0019851548373004133,0.0013762841294250546,0.005791272753763307,0.004186856915964951,0.1936864369322992,0.10238272244375438,0.16670315082586276,0.011592986814306533,0.0016301444249557876,0
0.004134949033164618,0.0913794219301218,0.2146584016042634,0.0010133294154604743,0.20031474715845307,0.0019891571720408235,0.0013766353138210262,0.0055826787002782015,0.004199187486317573,0.19348439062250977,0.10225102636720927,0.16637179833160298,0.011611048726156122,0.0016332281386007728,0
0.004139484479050514,0.0912813214860633,0.21383559574408326,0.0010076685913141582,0.19991371003442715,0.001989569451453007,0.0013793133489811075,0.006694673178262744,0.0042094312616996026,0.19356777697045888,0.10258180212591388,0.1661392422557909,0.011623444889512093,0.0016369661829895707,0
0.004121056990132346,0.09094636569096952,0.2129481506542507,0.0010055359368793236,0.19886098126045004,0.001984489637834832,0.0013806186248041014,0.009041861253969134,0.004210621567407262,0.1936807164765821,0.1027686910029246,0.16582452895110697,0.011596540908437957,0.0016298410442509043,0
0.00411085371623488,0.09067204166685246,0.21258793406974213,0.001001652608484799,0.19856985593006374,0.0019833498683962717,0.0013807553266665846,0.0105069462159106,0.004211803320984784,0.1938457165389004,0.1026507576387307,0.16529141900243843,0.011565139833711354,0.0016217742628827762,0
0.0041263803961433575,0.0912162186922774,0.21281857320561848,0.0010038445510214663,0.1990181624883599,0.001982571602197254,0.0013776170552387646,0.008967021237524278,0.004209339301762065,0.19406709288506502,0.1024175872057589,0.1655933620035878,0.011575391696101186,0.001626837679344015,0
0.004137302791725518,0.09186626621211931,0.21355983298387715,0.0010133660428005241,0.19961409783412853,0.001979207011995719,0.0013724441507790624,0.006381866482795419,0.0041924577568466515,0.19380154696091376,0.10255981873628403,0.16628726185347179,0.01160067133313563,0.0016338598491268056,0
0.004133948157179078,0.0915332937038705,0.2140653144581556,0.0010150764018950725,0.19981134043333643,0.0019784868714970093,0.0013710066189510047,0.005866803440557255,0.004184281375403899,0.19353648832390008,0.1029767096399496,0.1662869549116847,0.011606876809543816,0.001633418854075735,0
0.004139905485389941,0.09146924915097647,0.21419766022566966,0.001011854583901582,0.19987675942501432,0.0019859962014146674,0.0013739265848512696,0.00632793213606485,0.004197308312059331,0.19333690336407106,0.10265676911543282,0.16617566483142465,0.011616121654317435,0.0016339489294118071,0
0.004148705130479754,0.09217728499283043,0.21407634083031815,0.0010111501945498503,0.2000148203843745,0.00198590773661453,0.001371761571799103,0.006105805597387174,0.004200576389579865,0.19305182551464983,0.1018325417331372,0.16676522511031366,0.011621474955226911,0.001636579858738815,0
0.004145154510867085,0.09237904382079794,0.21362969097448575,0.0010118251103045017,0.19954227174719058,0.0019765123775119103,0.0013672279199238653,0.006383954068099225,0.004188525882871621,0.1929994122989379,0.1022557226861992,0.16688967200405014,0.01159659229442048,0.0016343943043396671,0
0.004141505188928819,0.09197947139383261,0.21357618827567657,0.0010104714296148508,0.19918633530181992,0.0019790427732434787,0.0013748094864288055,0.00749409150022084,0.004189835847052887,0.19292029025471966,0.1026645430796447,0.16627346298744375,0.011577353303607282,0.0016325991777656342,0
0.004142284815481999,0.09191357640384026,0.21367609378980706,0.0010095853923875189,0.19933967286346965,0.0019900828516527655,0.0013802872745874487,0.007657777651329789,0.004200141585418809,0.19300096511233897,0.10229618299582631,0.16616927338661547,0.011590313249778297,0.001633762627465668,0
0.0041451051275080975,0.0924505518763986,0.21358901406125186,0.0010110396598721546,0.19933138354135566,0.001988065413395179,0.0013732505743978803,0.006462780893841397,0.004195567539942534,0.1933965231431215,0.10239101022015008,0.1664275957551638,0.011601616134872605,0.0016364960587286394,0
0.004155840122301493,0.09314811337383871,0.2134859538139559,0.0010121832127742427,0.1990754719797123,0.00198233163531406,0.00136928998336787,0.0062967974084334275,0.004188759181954584,0.19329104874425204,0.10254567791963896,0.16624237987154666,0.011566825073037641,0.0016393276798720507,0
0.004170941444670347,0.09371504676212315,0.2134387863716353,0.0010126822157919368,0.1987445965920792,0.001982366335760362,0.0013708959823203915,0.007468894661656759,0.004193864871052606,0.19255907031120498,0.10215062801669343,0.16600870171279516,0.011541059333939374,0.0016424653882769664,0
0.004183735352262455,0.09475409164635942,0.21344405223756063,0.001017151550659755,0.19862706961203158,0.0019706345277962596,0.0013632380185285163,0.007013985628712972,0.004177566197576828,0.19202016325357768,0.10225480733061393,0.16597240668646038,0.011555070788627872,0.001646027169231694,0
0.004203987584588672,0.09673758837661264,0.21378103410256563,0.0010269703006708585,0.1986340853256076,0.0019535023462840147,0.0013510303776876427,0.00464106648215086,0.004144126936735501,0.19163024225084255,0.10275190165847979,0.1659351126834415,0.011557843551066187,0.0016515080232662692,0
0.0042292319273954885,0.09791908407301407,0.21366713130051798,0.0010288343280364712,0.19818519219625044,0.0019538393636381506,0.0013461384017258154,0.004558141485958337,0.004141909597226561,0.191162228988308,0.10284664579935765,0.16576069786592584,0.0115435128137762,0.0016574118588688627,0
0.004235866634456049,0.098078579227204,0.21301535432498722,0.001022836000618623,0.19745799199539282,0.001956723661264323,0.0013467639999713147,0.0063129335780813395,0.004145683449028466,0.1906894088826297,0.10295833628267352,0.16557578320989383,0.011544302360964256,0.0016594363928345353,0
0.00424428165620223,0.09909571560664679,0.21304675397236658,0.0010259470363819655,0.19780645340435485,0.0019551930597960366,0.001351102437151547,0.005362888038717186,0.004125022839443458,0.19011469220629004,0.10296692435357761,0.16567885064356316,0.01156321302798633,0.001662961717522089,0
0.004259867252006232,0.10034349869199032,0.21346477707487044,0.0010278397174583937,0.19793432666564786,0.0019579782736876793,0.0013556495628673521,0.00367168334325353,0.0041134316923896125,0.18973810170142408,0.10277194764408061,0.16613531463993023,0.011557519504190043,0.0016680642362035874,0
0.004270510218883702,0.10021528095511655,0.21354708994391447,0.0010237638031987291,0.19695056628795585,0.0019586418229533996,0.001354753304744499,0.004395438123498115,0.004118242040078712,0.18975782361784996,0.10279629293597634,0.16639217039226087,0.011547184262100097,0.0016722422914687517,0
0.004274935851465798,0.10006851197620542,0.21352236314994832,0.0010260662984927082,0.1965165028506577,0.0019488798771945624,0.0013491248332657838,0.004683292908826614,0.004110878945637061,0.18959650066101974,0.10324317480723799,0.16642292945231907,0.011560847842424608,0.0016759905453046441,0
0.004271270183355809,0.1010112832958416,0.2131853531631082,0.0010291919852715914,0.19629269452640283,0.0019377599753116314,0.0013432157653072334,0.004381753036837346,0.004103923222111753,0.18912669876919794,0.10375289164729927,0.1663306401015887,0.011559118453499226,0.0016742058748668808,0
0.004255187000608121,0.10144411365723559,0.21216340104359357,0.001024851548217755,0.19530108222686507,0.0019270369549393407,0.0013379651636457406,0.006231165705716639,0.004100854315249597,0.1889435311324449,0.10432247381791737,0.16577878927373252,0.011502620244286475,0.0016669279155473134,0
0.004239718282554895,0.10100613014394673,0.21128731234576562,0.0010234004897411854,0.194512379824661,0.0019179094613157202,0.0013325358860941082,0.007852203198233201,0.0040878602152952205,0.1889965502187421,0.10518851368460977,0.16542188999207863,0.01147099124787832,0.0016626050090834663,0
0.0042400930911759725,0.10085275278229863,0.21125367783271232,0.0010268411510307197,0.19473019518091228,0.001918236292298095,0.001331194149206256,0.007286356700690729,0.00408621368048265,0.18897456323194908,0.10541008781811066,0.16572451713655253,0.01150058392844114,0.0016646870241390024,0
0.00424838662831867,0.10117019709125417,0.21167621976352713,0.0010274771287671262,0.19505484011856386,0.001920555198880738,0.0013338386764149002,0.00650071184472029,0.004083046271007901,0.18872130055012773,0.10504308918821734,0.16604736065347991,0.011506825077868066,0.0016661518088520425,0
0.0042589856905133295,0.10125149219804029,0.2120299697205804,0.0010263733787208202,0.19517917746984279,0.0019240482780210149,0.0013385227408428887,0.00513083768003575,0.004067769351087046,0.18883951118518347,0.10536139374300349,0.16640313666795933,0.011519217051046141,0.001669564845123394,0
0.004261858920577992,0.10095766546077618,0.21196925458398022,0.00102432343977334,0.19545760986667168,0.00192971637815201,0.001338101936653917,0.003688601380008944,0.004066560311273258,0.18922374565316785,0.10623338235561341,0.16660676231462074,0.011566313799229962,0.0016761035995005058,0
0.004260291579456252,0.1009963353572999,0.21193979301683266,0.0010239487212198323,0.19568761514704824,0.0019332217592222642,0.0013332608784837464,0.003394157112164959,0.004063189753075913,0.18909009646576452,0.10650706605406866,0.16651207406398646,0.011581633382850611,0.001677316708526021,0
0.004262142584245114,0.10098996409264165,0.21254321447756738,0.0010253084725746623,0.19550918097472217,0.0019328781967105644,0.0013336874341609364,0.003104026199948383,0.00404881004248757,0.18888350417160704,0.10651303541767813,0.16660016656962404,0.011578895167345973,0.0016751861986864208,0
0.004260599570196766,0.10020284082229847,0.2130345652870432,0.0010234104285841302,0.1949821934459035,0.0019275846894131175,0.0013364271815865811,0.0024607421534974484,0.004053735207069874,0.18911963141492044,0.1071987839612712,0.16710881928854787,0.011610787568689959,0.0016798789809772323,0
0.004255378764809355,0.0994240873454529,0.2126111119930123,0.0010182038739229512,0.19419698642213545,0.0019170715880327083,0.0013330167826135523,0.0030346210419235926,0.004064535918456826,0.18939363658994243,0.1079691396915725,0.16747054772626857,0.011626430454599086,0.0016852318072578074,0
0.004246931280610339,0.09915711435456648,0.21207319126549362,0.0010143729401282605,0.19392196361988803,0.001913120733534006,0.0013318336182227425,0.004175339209948154,0.004061464883901086,0.1894565621285091,0.10814209118807136,0.1672172588024126,0.011609089908321346,0.0016796660663930514,0
0.004247709329901384,0.09907820622824179,0.2123237840232745,0.001016669197832903,0.19434815658218496,0.001917967489001861,0.0013368618193510522,0.0038951719169183696,0.004059873900661,0.18950879833837353,0.10791648513886218,0.1670542122746886,0.011619124983408018,0.0016769787772999067,0
0.004260411623579021,0.09857507591123821,0.21301288489613035,0.0010186351003177144,0.19441910468790158,0.0019202753321435236,0.0013401798506699238,0.0036933817015541927,0.004071830456748015,0.18930823516912595,0.10763619185531616,0.16739910706834824,0.01165957636720843,0.0016851099797185398,0
0.004268533766107507,0.0979158383422825,0.21341193858638474,0.001015982370502984,0.19472712091456418,0.0019278086267182062,0.0013411078403341358,0.003992887851972962,0.004081269270356553,0.18905646896109196,0.10718804197104922,0.1676940957387529,0.011688755613999385,0.0016901501458828044,0
0.004263075641912387,0.09776455389681925,0.21339191280669279,0.0010132895276866532,0.19536462907487598,0.0019349978490317886,0.001339461521923772,0.00290422852856876,0.0040733742933761015,0.18931038970029163,0.10758094811144323,0.16766351396622228,0.011702355105124799,0.0016932699760305353,0
0.004257793942206736,0.09771183144653059,0.21263691432867302,0.001011631163880653,0.1947093488823694,0.0019183920714806832,0.001331800035151372,0.001951467271294014,0.0040598673467668895,0.18981789783898254,0.10951946318897787,0.16765505658585808,0.01172000634969429,0.0016985295481337856,0
0.004247051211614962,0.09672354427316257,0.2119012646373314,0.001007141199713283,0.19314112589493931,0.0018995396683609447,0.001327100921676636,0.0033775899259447283,0.00406389424302317,0.19032153797672854,0.11079255028344721,0.16778250453581142,0.011718629927081331,0.0016965253011644288,0
0.004236469176285098,0.09551797124642172,0.21202070269950782,0.0010057866712147251,0.19297510428970488,0.0019070107196574367,0.0013337684296509526,0.004823520851196717,0.004077251957923801,0.19067835305410874,0.11021089001928963,0.16781636485042534,0.011707512703239926,0.0016892933313731268,0
0.004237017726532419,0.09499233557359531,0.21236206225325188,0.0010066122581337562,0.19389402137724063,0.0019231435985474963,0.0013408129863560709,0.004412054684090058,0.004087080977019381,0.190702270668159,0.10974658350180365,0.16787465840682925,0.011728650855733321,0.0016926951327076948,0
0.0042293826862918864,0.09414779524674259,0.21197102861052763,0.0010025028327707317,0.19368906952840573,0.0019211107775595274,0.0013380171742579374,0.005347202245771861,0.004099713059118576,0.19062115472800498,0.11017867205256261,0.16802638278178217,0.011731605935290467,0.0016963623409134453,0
0.00421955914086071,0.09308824957766446,0.2118003128171321,0.0009966628676296916,0.19330834382687942,0.0019170322391040772,0.0013342393970702212,0.007287953365203359,0.004106997876972482,0.19077841104539411,0.10970970080576758,0.16805730041358952,0.011705125764799502,0.0016901108619327217,0
0.004228263204722234,0.09303012373467466,0.21201504093249512,0.0009945591002633372,0.19377290049117027,0.0019252732700402516,0.0013361400510202143,0.006737955061536227,0.0041064830948685125,0.19134399165926136,0.10921439100187504,0.16786827128220966,0.01173545022793512,0.0016911568879280836,0
0.004235891717184255,0.09305650683664336,0.21158583470833034,0.000997869963152713,0.1942833571524094,0.0019299036068897903,0.0013383125962596685,0.005883158108390127,0.004110433781309072,0.19160211390001264,0.10991821676798873,0.16757001392075246,0.011790698481363916,0.001697688459313557,0
0.004228666629501331,0.09249600051360515,0.21121376015653653,0.0009995637349232017,0.19418262272213999,0.001924241040958654,0.0013357047619211807,0.006586575741159392,0.004099004954541614,0.19129372862184502,0.11068844753462437,0.1674770954569136,0.011777651060432763,0.0016969370708971828,0
0.004219876761704924,0.09218406174408891,0.21127518620738436,0.0009969316384700788,0.1936422873768521,0.0019193567261405438,0.0013299782696719212,0.006408619214847824,0.004077533682215049,0.19128540813301617,0.11155044116349279,0.16765291336074709,0.011761444330543432,0.0016959613908246875,0
0.004213076243227046,0.09218695122221772,0.2111770981853671,0.0009944332122171593,0.19324573387369834,0.0019161634159951093,0.0013263042738818715,0.005315460055313803,0.004077577388286033,0.19152372939603543,0.11258084090306181,0.167967605038772,0.01178033403677313,0.0016946927551533947,0
0.004210932105052369,0.09205981912390881,0.21117910672394238,0.0009957061060805762,0.19350766297866656,0.0019181244056262975,0.0013308075878244873,0.005611462644465595,0.004100180979778246,0.19142741024993054,0.11215794686200242,0.1680293843759503,0.01178113834499897,0.001690317511772284,0
0.004210102805866592,0.09159775316556278,0.2113441297373566,0.0009933431540553254,0.19375643488035083,0.0019223476061726377,0.0013368309608952447,0.007426251012641377,0.00411656865058324,0.19140866706708545,0.11098101457622239,0.16745632077519396,0.011761094479572215,0.0016891411284413094,0
0.0041999564674991535,0.09048827056429536,0.2111434720436248,0.0009880165483814158,0.19328125747861996,0.0019214860115905718,0.0013359285218241216,0.008650831347657545,0.004118837650167745,0.19173719704139242,0.11145525269448377,0.16722444237993722,0.011764280978375452,0.0016907702721504015,1
0.004196097562601084,0.08964282803324956,0.2110290353537918,0.0009884302057698794,0.19312676957135003,0.0019213157969178868,0.0013328340885877534,0.00858803373836969,0.004115741235472828,0.1918961376912481,0.11184556328067026,0.16784893620858488,0.011779020491437399,0.001689256741948779,1
0.004213828242455185,0.08963322970097137,0.2119018656421572,0.0009913416474404595,0.19375708666522973,0.0019263966823735025,0.0013360348695792405,0.007623454836994866,0.004111711942720271,0.19168475984368114,0.11086594677864392,0.16845012785729363,0.011811603644680499,0.0016926116457790627,1
0.004231075361094375,0.08950306223902436,0.21305702028137544,0.0009919842758533595,0.19448496541418428,0.001927897798285378,0.0013417901288002392,0.005841132400752785,0.004111692548105688,0.19146309339599743,0.11076751417151073,0.16873150757518032,0.011846812903589814,0.001700451506245793,1
0.004235489615871078,0.08941127632884333,0.2135811770930688,0.0009937868739473212,0.19503184315636912,0.001931299428945657,0.0013451331449584167,0.003946722408468046,0.004106898910234677,0.19140756130740974,0.11134371420159063,0.1690989975835571,0.011862241516392934,0.0017038584303431161,1
0.004236040428064033,0.08943623357258337,0.21351125147609343,0.0009973102292336218,0.19517832857746267,0.0019369952326331967,0.0013490868775136206,0.0030696254415779017,0.0041047017774198495,0.19178082750712344,0.11149149284579923,0.16931969881396938,0.011884838896202886,0.001703568324323338,1
0.0042200297604589486,0.0889179406282415,0.21294887093432607,0.0009944039695616224,0.1946870434744657,0.0019337994823032157,0.00134933191242895,0.004087230770347793,0.004122914041769809,0.19232888351126945,0.11178216391235539,0.1690458383847512,0.01188278929077054,0.0016987599269498597,1
0.004192790648337089,0.08843910753000242,0.2118908618747814,0.0009877969522923608,0.19390075605569515,0.0019229189277246326,0.0013436111271775927,0.007192753807127376,0.0041503545828624165,0.19247261552131903,0.11183184612264249,0.16816191547358342,0.011822922098257794,0.0016897492781966744,1
0.004178325523511531,0.08782107201629084,0.21128994901678624,0.000985748014075009,0.19358741695035905,0.0019231398123892125,0.0013430438467477753,0.009996181061450414,0.004157868980401486,0.19249897644708475,0.1113315327406124,0.16741161408902933,0.01179263057032076,0.0016825009309410608,1
0.004172758961805326,0.08692125243596048,0.21145560789090578,0.0009848505402117308,0.19417119651147693,0.001935278664431418,0.0013488132150849973,0.010005624518568798,0.0041514379377695304,0.19296260777855534,0.11116172573904715,0.16723947213583257,0.011810208695532483,0.0016791649748173667,1
0.004162972259842579,0.08695465000481946,0.21114080625726875,0.000984785995488275,0.19456021056511594,0.0019422199579728708,0.0013494130175722508,0.009569539882647853,0.0041533875655558215,0.19327174618669524,0.11109858828363912,0.1673522643957158,0.0117850136695211,0.001674401958144786,1
0.004159138973012763,0.0876093085187848,0.2106389720320164,0.0009876803437435114,0.19452962365931706,0.001943535690225079,0.0013453961302977656,0.009931306984485565,0.0041586630275043165,0.1930404741934665,0.11080620104626397,0.16740871153560558,0.011769036545582638,0.001671951319693932,1
0.004166395257208851,0.08748823596051396,0.21092687512193264,0.0009880078172252126,0.19473361026938252,0.0019457838062324137,0.0013457770382161573,0.008870495020171705,0.004153825905699054,0.19311770491241936,0.11104094915935948,0.16772387858583093,0.011819923421892925,0.001678537723914878,1
0.004169981480937806,0.08661738935436507,0.2118585235549025,0.0009838974438328603,0.19512419669556053,0.0019468103269850144,0.0013492556761525345,0.007152249440504475,0.004153220336335104,0.19373609344160472,0.11133257221988654,0.1680405479025689,0.011853678432897398,0.0016815836934666389,1
0.0041693836841441324,0.0861310482705767,0.21218135086356893,0.0009829412508948487,0.1953212989401052,0.0019455442012350872,0.0013518242972926186,0.007313170200667874,0.004170403400612091,0.19395128414459956,0.11096206901819415,0.16798863816249437,0.011854659076965557,0.0016763844886488132,1
0.004168635021289124,0.08594290496928796,0.2118253054748515,0.0009828860528984227,0.19516576963022556,0.0019479273955932692,0.001356314158270775,0.008276883976781151,0.004183438986138251,0.19391926665264025,0.11074017994937695,0.16795102750561527,0.011862197563838228,0.0016772626631932754,1
0.004161179935411259,0.08544517069164148,0.21157348029058898,0.0009781745411121417,0.19493710997158464,0.0019503796032755158,0.0013591891397261404,0.009148750364795682,0.004183442784210599,0.19382145023814917,0.11088353798503055,0.16803899926864305,0.011839480308439362,0.0016796548773913092,1
0.0041468097131037275,0.0851368067741875,0.21151717025999764,0.0009737216830153951,0.19504096721450848,0.001945526100494593,0.0013563743637598456,0.009772748736506121,0.004175775346756796,0.19340539428469977,0.11092635296456362,0.1681374455751973,0.011791587576751217,0.0016733194064577565,1
0.004143527996264072,0.08549124316566706,0.21125669770135194,0.0009746670095366949,0.19530376109921452,0.001940255849316218,0.0013514104085993002,0.009754505916166336,0.004168733638079539,0.19328707393568767,0.11088536478767169,0.16798898593475942,0.011786325183600966,0.0016674473740846824,1
0.004155383528158986,0.08535227785171258,0.21134346540175739,0.0009774174534188194,0.19571436426479544,0.0019455234292013175,0.00135805849559688,0.009505211758734634,0.004172173108880239,0.19369225834380488,0.1104293692913166,0.16785631346282723,0.011829185325629777,0.0016689982841651598,1
0.004155776319000968,0.08450949850530906,0.2118399049994152,0.0009730900068829526,0.19620323537609205,0.0019518729714770443,0.0013692535339817741,0.009176392665285396,0.004182598894924019,0.1938777664219075,0.11015811801239772,0.16808777224569937,0.011842736653767881,0.0016719833938590044,1
0.0041434637862305486,0.08447048401635894,0.21158289349381942,0.0009691260921567261,0.19605739257637897,0.0019469408762403946,0.0013657582660866693,0.008638146732066134,0.004180562779229109,0.1941871998039905,0.11068409606713984,0.16828143105812288,0.011818580561288091,0.0016739238908915815,1
0.0041407093118087995,0.0847861950635113,0.2110532315673544,0.0009719257340823961,0.19572888632050398,0.0019403556608049684,0.001358763546672656,0.008321935549029214,0.00416875970084593,0.1944900773237792,0.11142500266189835,0.1681388819803789,0.01180332139392866,0.001671954185401117,1
0.004135739262570608,0.08452488305887208,0.21085663346312317,0.0009714894310088981,0.19581011417838134,0.001946182366077869,0.0013593707232884965,0.009053895630230721,0.004175495494333177,0.19436358231774853,0.11150098607997463,0.16783766634340608,0.011797756942856888,0.0016662047081275654,1
0.004118820700851531,0.08425740766041388,0.21046098148804573,0.0009642884727213627,0.19509960230106438,0.0019462130996802708,0.0013568687271602322,0.010693602892510388,0.004184114973410468,0.19438602351968215,0.1113733908931365,0.16772537978052057,0.01177040525392695,0.0016629002368755386,1
0.004112708227369188,0.08426575179394093,0.2101334036821438,0.0009621609582669792,0.19389881541488616,0.001938771020347457,0.001353724301918564,0.012244804133026184,0.004179511715435765,0.19439270852666762,0.11146617614293788,0.16765503032609186,0.01173624769539097,0.0016601860615765443,1
0.004114750252949736,0.0843727727908882,0.21023240733728454,0.0009630789818637062,0.19392145863371021,0.0019428662676122552,0.0013578672772349306,0.012912487043846876,0.0041766782244540435,0.1939147405896819,0.11133260864527414,0.16737344707198287,0.011728020400635896,0.001656816482580593,1
0.004107821522257373,0.08424166672210473,0.21059302821186615,0.0009622831963002265,0.19487990576579242,0.0019532835687829844,0.0013636590424662702,0.012353654720418106,0.004175687054122081,0.19384380840061102,0.11097129354749868,0.16716438427819855,0.01173397841343671,0.0016555455561446612,1
0.004106404548466097,0.08409440395382727,0.210657281761676,0.0009657874561544876,0.19521334580051858,0.0019555125963491094,0.0013656771429436242,0.011907563802517902,0.004176757296485166,0.19417110306640303,0.11077174715603905,0.16723591313985142,0.011723201231440494,0.001655301047327798,1
0.004119689641491481,0.0842751833032618,0.21074060046696047,0.0009696989440944176,0.19487195156757553,0.0019526222986917111,0.00136895832993055,0.011788431344971359,0.004185736151573063,0.19442703281043364,0.1105668060256786,0.16734700840493788,0.011729070749697682,0.0016572099607019208,1
0.004126253283602664,0.08426271054522319,0.21143153087424796,0.0009671943260599736,0.1948577461443966,0.0019529169292496417,0.0013727999301896782,0.011325030233046077,0.004189385300457637,0.19448903115482066,0.11007487866783958,0.16753136097929688,0.011758775350627939,0.0016603862809413893,1
0.0041208647889188635,0.08387197939838184,0.2118467301116368,0.0009664743849399117,0.19541780382013235,0.0019580133701514978,0.001373445292391445,0.010975175075213481,0.004182918234656105,0.19429108295523467,0.10962716328514165,0.16794673902426677,0.01176068838066881,0.0016609218782658959,1
0.004111464690976033,0.08353377743557842,0.21112180527860133,0.0009677815338510166,0.19563402366930882,0.0019633440519212673,0.0013718044548038909,0.01183994027665264,0.004196564985359927,0.19426150456532018,0.10977337399148906,0.16782872195591297,0.011738886568690704,0.0016570065415336625,1
0.004096776652469093,0.08324708321718499,0.21035851615642762,0.000964286997102444,0.1950595854824951,0.0019604769301695695,0.0013697262997282359,0.013273831442202354,0.004215621798769037,0.19467927100288296,0.11010599799116358,0.1672828162839656,0.011734555997337835,0.0016514537481012238,1
0.004086764805537218,0.0830138895552378,0.2104713894357228,0.000961424800152757,0.19479811379292783,0.001955281584809087,0.001368456942783806,0.013414666580384297,0.004206417221239672,0.19500209712845648,0.11000342633486411,0.16733675691987784,0.011732204510503287,0.0016491103875028801,1
0.00409618926555908,0.08316431471718165,0.211222560895879,0.00096485271961229,0.19534020452056977,0.0019610738642481655,0.0013715044952056145,0.011702489915582906,0.004192449661450948,0.19494476112705075,0.1098057694605145,0.16783870195755646,0.011741766425527312,0.0016533609740616842,1
0.004107428944836543,0.08356524435122611,0.21197046220219898,0.0009679639587886613,0.19568141386195803,0.0019678648899508246,0.0013733789544562317,0.010343215857586269,0.004194126368187203,0.19465481755629976,0.10984488831126267,0.16790829487859252,0.011764132026922145,0.0016567678377340238,1
0.004103756183647771,0.08345135934059804,0.21185044124895805,0.0009663318363578237,0.19550435308669617,0.001965183029619456,0.001373607008080583,0.011647578870228254,0.004205611180848184,0.1944712168976711,0.10941736119984204,0.1676372431309642,0.011751996973526649,0.0016539600129616848,1
0.004099360703873467,0.08309833733413377,0.21129009902649312,0.0009642383333100424,0.19550235520277184,0.001961003560745027,0.0013745506673522913,0.012795200294172568,0.004206781505266169,0.19476062928266719,0.10915975860515478,0.16741069154199367,0.011726372604490803,0.0016506213375753831,1
0.004103621186615225,0.08370113416382871,0.2113434109297149,0.000967252635571229,0.195928876956896,0.001962121981207922,0.0013721958579228863,0.011559910844821376,0.004197243045902349,0.1947909235257107,0.10955476517946355,0.16713152753697794,0.011734349569073634,0.0016526665862934744,1
0.004105873135621445,0.08413105906969978,0.211561686198629,0.000969485318998078,0.19605163481356905,0.0019645416476893568,0.0013706380324024076,0.011857032803451663,0.004198137597214865,0.1944611313466374,0.10915331839961082,0.16678195145871055,0.011741572172095174,0.001651938005670359,1
0.004104945433724206,0.08343703407781473,0.21181537474580214,0.0009678680402891687,0.1962344137398488,0.0019661096439197853,0.0013755147409484207,0.012884874743334706,0.004204385707326403,0.1943862590388223,0.10817874457924352,0.1670715196186929,0.011723656015788547,0.0016492998744443395,1
0.004108913237483245,0.08384857710246683,0.2119536795488893,0.0009712805121570329,0.1966779719762799,0.001968496267586233,0.0013767605686508641,0.011427687098530342,0.004193676421940195,0.19426893378221813,0.10824937986709834,0.16759714560826003,0.011707951526104885,0.0016495464823345738,1
0.004114313290284435,0.08550965089170803,0.21186464225504578,0.000976896616559672,0.19652620821742256,0.001969784477459946,0.001372034943107572,0.01011302793418225,0.004184043118813339,0.1940573532718981,0.1083455490748896,0.167618887717411,0.01169937629447889,0.0016482318967387434,1
0.004115964676718611,0.08595556695233468,0.21204571770569414,0.0009764990652293638,0.19650382169541453,0.001972727542799512,0.001374433244094989,0.011228680142901496,0.004201525184956589,0.1938586761799166,0.10694606125481942,0.1674934993043886,0.011683057453795666,0.001643769596935865,1
0.004109175916949242,0.08565691969472965,0.2123259002985118,0.0009770121792089235,0.19695869193687834,0.001973914054528369,0.0013788342223102986,0.011903682644919518,0.0042109115517893056,0.19379842161088986,0.10634536887223489,0.16706186631625639,0.01165888804171594,0.0016404126590772662,1
0.004105989057175484,0.08630707967011937,0.21219769666269575,0.0009829133616899388,0.1971647719146114,0.0019681698285040606,0.0013739735601834356,0.010861429544836989,0.004204178346594519,0.19400582691300347,0.10710482612442154,0.16643712725529808,0.011645703118532453,0.0016403146423333871,1
0.004112160744159773,0.08689961736893266,0.21218242614868882,0.000983935444101157,0.19706465947525664,0.0019667726065303037,0.0013710288560598307,0.009983991978184713,0.004202897926120427,0.19428919476374687,0.10709303197778168,0.16654731378373452,0.01166475733641071,0.001638211590291707,1
0.004117130517080367,0.08637157125344584,0.21282930569856187,0.0009826105603097945,0.1977272190554929,0.0019782058502775565,0.0013778487226453946,0.009295590109557314,0.004206494562825987,0.19423168797086884,0.1063359203506388,0.16720729906788884,0.011700553703794686,0.0016385625766116162,1
0.0041150398691441005,0.08577090849746945,0.2134552585292705,0.000984724992525525,0.1988324224005434,0.00198561066514697,0.0013808835326091034,0.008591001791263281,0.004206368937118877,0.1939718360797842,0.10589024035058558,0.167454774030211,0.011716795699790934,0.0016441346245372275,1
0.004109693637622311,0.08585972944234625,0.21338403740677506,0.0009854770104390442,0.1987976674900404,0.001982655496953134,0.0013766763783930962,0.0090183408469143,0.004213246393636301,0.19383313287872345,0.10581548761897976,0.16728435463260172,0.011696042104544425,0.0016434586620308405,1
0.004108564452994601,0.08633912376275325,0.21268954898949938,0.0009850604322603506,0.19810557906181894,0.001980069187786594,0.0013778188963904465,0.010241930307637499,0.004213067427813965,0.1937343287206834,0.10580623351501989,0.16711641938498367,0.01166581643313329,0.001636439427224787,1
0.0041147338665534815,0.08660244733419155,0.21249721343310476,0.0009866935941333246,0.19816225029919243,0.0019833520051625022,0.0013853922117992741,0.010407152547666587,0.004204998254065434,0.19380943378779206,0.10547756676254046,0.16705806991498026,0.011676003344749738,0.0016346926440680737,1
0.0041139690356908004,0.08652366660114762,0.21292432688556187,0.0009846314264074685,0.19844174585058016,0.0019857621575647124,0.0013868547291151332,0.010209270752180363,0.0042072559164974075,0.19372738487525198,0.10510547928480411,0.16706895306780897,0.011683587173438927,0.001637112243950309,1
0.004102670394821306,0.08643002684613761,0.2125503660488434,0.0009819392869450634,0.1982660118823216,0.0019805014623016934,0.001379117289241287,0.01038643250595003,0.004199631179646222,0.1934642383986445,0.10599545432087563,0.16697693697359198,0.011648838039756089,0.0016378353709234198,1
0.0040988596182291405,0.08652889528815312,0.2118601163570175,0.0009846028932072612,0.19766739487948304,0.00197311741091338,0.001370344738424207,0.010188957871393815,0.004188286661283128,0.19370917890786607,0.10715298659381998,0.1670020223933646,0.011639238119933388,0.0016359982669113,1
0.004097753090105561,0.08622934376062323,0.21186407947816224,0.000985102793458206,0.19721553853137838,0.0019709657392100043,0.001368756295605392,0.010347956116028964,0.004199801603352714,0.19441829916462883,0.10710753956777878,0.1669001221304649,0.01166159094721032,0.0016331507819921797,1
0.004098067987709652,0.08584182025902035,0.21213843152385678,0.0009816076045807128,0.19729288125080208,0.0019743110642819863,0.0013723262906947978,0.010382924145976512,0.00420496754779034,0.19462569280610456,0.10674183815300786,0.16704622756770302,0.011665789343863704,0.001633114454607693,1
0.004106237675517571,0.0860535161507109,0.21256133928497967,0.000982006610608058,0.19795876057967196,0.00197824694457467,0.001375412277275936,0.008927462455933273,0.004189257196024745,0.19427645819422432,0.10689888527001674,0.16737924193759918,0.011675968994699432,0.001637206428163401,1
0.004107700456607034,0.0861637719531874,0.2128756510688245,0.0009845333841699297,0.19848253976462052,0.0019839358564638057,0.001375902245764952,0.00789725010274279,0.0041877386709375675,0.1942226174621527,0.10710536233815676,0.16727033869868585,0.011702364026306209,0.0016402939713801344,1
0.004100224544654866,0.08590068892109938,0.21255594407902245,0.000983521812431455,0.19824393043583588,0.0019911312740837133,0.001377484782306311,0.009210370061444885,0.004206355624691329,0.1942271042293667,0.10692748112353226,0.16695088113426554,0.01168814740871846,0.0016367345685467595,1
0.004104268722326155,0.08586582832185582,0.2124222721618218,0.0009830867067236685,0.1981697251075509,0.0019923696903338447,0.0013798409080068433,0.010330348147149969,0.004217752508519467,0.1941824071613628,0.1060183581889073,0.16702631714786528,0.011672483873400872,0.0016349413541752664,1
0.004110359455617446,0.08603549760773144,0.21273226310775045,0.0009862531768760913,0.19870023999090597,0.0019826355823995938,0.001377492931739981,0.00939922628220865,0.004214146448196171,0.19445898660455452,0.10553915892090208,0.1671326313270204,0.011691977901232586,0.001639130662864796,1
0.004102535957536807,0.08648367795170794,0.21246876998314732,0.0009905987581796608,0.19879812203255923,0.0019747117545734043,0.0013713837662201122,0.008558169340592206,0.004200070445447607,0.1942951181755928,0.10649436576958311,0.166940736674374,0.011682492738150207,0.0016392466523357128,1
0.004099044306576926,0.08665589662105044,0.21220058395033714,0.0009889726506427188,0.19786740305067774,0.0019758215300079173,0.0013691282432017609,0.009548341278409768,0.004191104178145704,0.1937967183785611,0.10691318270142397,0.16711517031756173,0.01164474958156379,0.0016338832118392675,1
0.00410222545198499,0.08592665032137325,0.2126674529591078,0.000981993228970576,0.1972122294091276,0.0019775626243855884,0.0013739402966802025,0.010814331494660209,0.004199818133039179,0.19388461872312812,0.10614655303803458,0.16744409127347057,0.011637396284923048,0.0016311367611143784,1
0.004109446339675902,0.08544076597944598,0.2131615431297122,0.0009832297871353395,0.19767083692903298,0.0019817022141338844,0.0013793888746324566,0.010287701303537258,0.0042190525656175355,0.19455926030349543,0.10549177030731591,0.16740056190974678,0.011679927069326662,0.0016348132871916614,1
0.00411881900132444,0.08612028861491723,0.21343709414115206,0.0009903158210154913,0.1982661621061614,0.0019912721501722723,0.0013820187332688255,0.009137950680597319,0.004230903471733288,0.1946610277612628,0.10526197458556238,0.16705010860792383,0.011713997545464,0.0016380667794445157,1
0.004116366125390405,0.08657701525698963,0.21338241347185682,0.0009905042942906037,0.19852270996684634,0.0019945673794214505,0.0013860417642419718,0.009196184183234112,0.004222964517313628,0.19428944500011777,0.10514031774853816,0.1668502159068343,0.011695407694051236,0.0016358466908734802,1
0.004097995465702212,0.08637771836801876,0.21307880398712223,0.0009899745224922593,0.198422987224724,0.001985904966402187,0.0013870387652800847,0.009743898252591436,0.004208732608735187,0.19400658122443729,0.10532728042114864,0.1670867938843952,0.011655771815643165,0.0016305184933072293,1
0.004089997267679533,0.08628713621705052,0.2127679905272414,0.0009905185177937112,0.19793846108735855,0.001978497508094032,0.0013812618201106493,0.010009923337773837,0.004204806205044955,0.19405755310368042,0.10558170065833546,0.16744003185059128,0.011641600895933182,0.0016305210033123116,1
0.0040895892141961905,0.08648868781304288,0.21234355540856845,0.000987628261378897,0.19757990774962778,0.001981872144963759,0.0013800918918800492,0.010585454730253461,0.004199099799219977,0.19395811818687606,0.10588490560222755,0.16725434892017915,0.011636213933844067,0.0016305263437417163,1
0.004079316777778921,0.08657877570236809,0.2120424865469604,0.0009857665961284525,0.19760296216303996,0.001985435071934686,0.0013850131309571345,0.011086094204497717,0.00419083112052705,0.19367318817804982,0.10647737171053635,0.1666683408762155,0.011618986919335468,0.0016254310016703035,1
0.004079468814319373,0.08658471856967768,0.21225114220085622,0.0009889040612099272,0.19770662401390862,0.0019824371068806784,0.0013832232721021308,0.010728727177053358,0.004196446568934097,0.1939862792213797,0.10635896363367951,0.1664983891947512,0.011630420322861058,0.0016242558423863514,1
0.0040932688316630585,0.08680610007111653,0.21246637750557798,0.0009916177264336257,0.1977126762419267,0.0019797947282698134,0.0013792247688843868,0.01037404107490536,0.004205132546794293,0.194173251977466,0.10581231835114377,0.16673532145032352,0.011642769265782506,0.0016281054597122955,1
0.004088465648603961,0.08678485536009634,0.2124530548661443,0.0009912302138309678,0.19743819065487467,0.001977309889673541,0.0013782573155996232,0.010292214140688191,0.0041931708036650975,0.1939144807184841,0.10607357600107355,0.16716191383447931,0.01162548380140013,0.0016277967513864309,1
0.004089158244973292,0.08666100606244624,0.21305697883355193,0.0009898643462263065,0.1975220481652002,0.0019789807719997614,0.0013794055856624218,0.009444800588903728,0.004191884747781096,0.19396593770956988,0.10584346874710605,0.16760325664363573,0.011645608413912194,0.0016276011390311761,1
0.0041103514218688245,0.08691103450945017,0.21374747924832097,0.0009918768353806668,0.19832283749562032,0.0019872299755556194,0.0013853905279707546,0.008686255007645827,0.0042206387162958495,0.19429070908753202,0.10457480723205456,0.167450141674187,0.01168814473460901,0.001633103533508419,1
0.004114154469905235,0.08688139373215675,0.2137086628903487,0.0009955994406233742,0.19880354008575435,0.0019893292951202045,0.0013888135201021972,0.009350458866973211,0.004232830463922272,0.19401796517914474,0.10414441429433031,0.16705575792636523,0.011682850860772864,0.00163422897448052,1
0.004099957572060009,0.08667480308637357,0.21355280632397375,0.000994033204922425,0.1984189294182345,0.0019884995377665035,0.0013857059848223856,0.010203397638494953,0.004213883949092962,0.19341103474797822,0.10476350161714697,0.16701545826950934,0.011649355086274855,0.0016286335633497948,1
0.004098032524434561,0.08676805760987626,0.21352064903581658,0.000990922971781544,0.19812994233494044,0.0019928583463927067,0.0013831541069611328,0.00975628169344561,0.004208036396042172,0.1937610464889452,0.10506802054143426,0.16704680779908723,0.01164834321203641,0.0016278469388058218,1
0.00409779771843892,0.08673335222989177,0.2131024199981505,0.000989926751635949,0.19805041190598355,0.001990232811091827,0.0013820394153983354,0.00930008699120085,0.004209278646153399,0.19436640468112126,0.10554638539965412,0.16695272973025982,0.011647380156563246,0.0016315535644564928,1
0.0040931189450332224,0.08618008806059614,0.21296325452320206,0.0009894148399493506,0.19774478091685138,0.001982841983196952,0.0013817042301864735,0.00928361853419309,0.004206341053405622,0.19443143698134507,0.10614329806520158,0.16732763776040735,0.011642411305058142,0.0016300528013735267,1
0.0040881032701727904,0.08595849920375577,0.2131720587601858,0.000989608968009416,0.19769759926448668,0.0019834409943962615,0.001384686131133588,0.009737257941240715,0.004214892309432068,0.19407960802067672,0.10587190001601557,0.16756001615215846,0.011637379260585933,0.0016249497077501954,1
0.004086478415671324,0.08615425806435845,0.2131513982331333,0.0009906270057076397,0.19819050874356067,0.001989977910944037,0.0013886541513361782,0.010489264694382489,0.004220546541864213,0.19392973435202931,0.10500382141877199,0.16715516200475738,0.011625505244900518,0.0016240632185823354,1
0.004088601134961609,0.08602226023116379,0.21299297332555703,0.000989266565479133,0.19829792239023056,0.0019933991642109685,0.0013882380601135983,0.01092131732777883,0.004213806412400829,0.19396997165546492,0.10494814471754306,0.16693524553758737,0.011613168220248483,0.001625685257259615,1
0.004082618753089199,0.08598831051975822,0.21268415911247449,0.0009879724380199445,0.19780587486023107,0.001990022858260862,0.0013851148186243456,0.01133749781239783,0.004219357701244136,0.1940237485973819,0.10532721682409889,0.16693669677451548,0.011606601281881814,0.0016248076480216151,1
0.004075453680088442,0.08629173869758368,0.2125112441142235,0.0009885684273435412,0.1978580062683442,0.0019876195866914415,0.0013831585742582549,0.011404723023393175,0.0042248682827598005,0.1939380540954055,0.10531532727190018,0.16678642322388765,0.011610788733555564,0.0016240260205650804,1
0.004092320971949703,0.08683135982927133,0.2130215916115268,0.000993731844911215,0.19831548365837795,0.0019884340838043097,0.0013807586419984866,0.009585283972889169,0.004201304333707287,0.19389123245230488,0.1053104324784506,0.16713329512783895,0.011627090672681238,0.001627680320288015,1
0.00410408536473231,0.08736744770047147,0.21353956732308343,0.000998583166509106,0.19808142955656857,0.001985509711728828,0.0013760982377380453,0.007890299916140656,0.00417878506692055,0.19372437804734505,0.10577874045129702,0.1677100095873435,0.011634563089458216,0.0016305027806630967,1
0.004096737403131039,0.08750574666092045,0.21339344620701248,0.0009977308474487302,0.1979421379693312,0.0019832013678666867,0.0013776653597911209,0.008396768088767324,0.004189712675071994,0.19333569100079734,0.105879468529817,0.16764076152691545,0.011631495743903163,0.0016294366192259378,1
0.004098017976211571,0.08693726268709596,0.21321767400175098,0.0009935549380323241,0.1982850605927005,0.001986637142698238,0.0013860399152837535,0.010255876264725418,0.004206764408918843,0.1933423400195968,0.10477299428281696,0.16726055349221516,0.01162941789603585,0.0016278063819175504,1
0.004101843592693065,0.08645882934831198,0.21327889066453903,0.0009933930649801443,0.19856411339836685,0.001992748630684891,0.0013886919304413102,0.011157867275408264,0.004205891799900736,0.1936144367790566,0.10379840034241106,0.1672019238888102,0.011615661885624566,0.0016273073987713473,1
0.004101789276685638,0.08649862955933661,0.21361603209281535,0.0009950953985949347,0.19856419497192934,0.0019992089692151627,0.0013875700161974222,0.010348554166795058,0.004210093277471251,0.19358032476441792,0.1040148405160886,0.16744686523066568,0.01160790736771771,0.0016288943920691808,1
0.0041062100423759525,0.08709848021516467,0.21398390431685754,0.0009967888744729899,0.1983791456503816,0.0019973292647609262,0.0013885370948866053,0.00939268119694299,0.00421876156840648,0.19350214586749637,0.10417277981165513,0.16752120941856427,0.011610454963923326,0.001631571714111108,1
0.004110388481397459,0.0878039558201127,0.21373550979427383,0.0009997881807524039,0.19825541438812927,0.0019904050858775757,0.0013841452236356229,0.009512010599080379,0.004204221464779023,0.19334840239313325,0.10409350245660975,0.16732700377176454,0.011601472060012535,0.0016337802804417163,1
0.0041124339166996515,0.08784793858658643,0.21311027455750808,0.0009985406659396975,0.19817845958277697,0.0019895319151852476,0.0013789073428801392,0.010135269372473115,0.004185002430628314,0.19293535967606512,0.10462217319207076,0.16727767378652755,0.011592378322950568,0.0016360566517082031,1
0.004117095451517459,0.08793638210253145,0.21296078980285785,0.000993775964506247,0.1976159269069099,0.00198324044103456,0.0013746090155008766,0.010621634890563978,0.004176332788611432,0.19239095236836048,0.10535098886520146,0.16725793764696237,0.011581632174640689,0.001638701580801065,1
0.004119504943213349,0.08837211653363003,0.21293516335146656,0.000995114115797402,0.19668012361066456,0.001970081058710275,0.0013672199749774335,0.010875151033222947,0.004158314754121416,0.19206311760038955,0.10602586793877057,0.1672364429581028,0.011563196567724213,0.0016385855592088213,1
0.004126943953756291,0.08838099911291748,0.21315900637460325,0.0010001377621495944,0.19647576011047072,0.0019708232185017367,0.0013691032616490884,0.009562440574328708,0.004148303497915459,0.1922444160221163,0.10659021790047908,0.16775084216835576,0.011581154422842849,0.0016398516199137307,1
0.004137649261344032,0.08828150941568139,0.21360614142646392,0.0009988741395867242,0.19677668468138826,0.0019758254805860662,0.0013751134100461213,0.008569210011660434,0.004166011167541832,0.19240451632411867,0.10639378781252691,0.1680668083787714,0.011603321962631365,0.0016445465276528919,1
0.0041419000936111835,0.08900490959202625,0.2136268541986395,0.000997123503691203,0.19670615319227414,0.0019738115515365636,0.0013696501667146868,0.009448470100469824,0.004177623871710421,0.19201638909260887,0.10545782724244473,0.1678330420736918,0.011597943451368654,0.001648301869212089,1
0.004153210806917077,0.08931673917981238,0.21355122123150108,0.0010000028256320014,0.19664973008212627,0.0019755461463195393,0.0013647553067730163,0.009590652154562689,0.004165014473449348,0.19171391206513677,0.10551420014355864,0.1677466911885701,0.0116075567547401,0.0016507676409007052,1
0.004167519797776189,0.08902389940174212,0.2140205591667154,0.001001898277681565,0.19709970886706155,0.001983821833957445,0.001371693761658436,0.008073387256081352,0.004165009536088995,0.19211532266932363,0.10594718174498642,0.16775149570807008,0.011626345908587642,0.0016521560702689746,1
0.004164416142160881,0.08945005764110969,0.2141284627971385,0.0010020767590834085,0.19752587107489264,0.0019830086194798317,0.0013732655050199339,0.007924953322649576,0.004175717564704999,0.19225344497679692,0.10548778313599055,0.16727113069293212,0.01160925654170039,0.0016505552263403637,1
0.00416086172482539,0.09001218863740841,0.214028223357898,0.0010078497873560735,0.19702096581151352,0.0019684596645544914,0.0013681580034752459,0.008775930219356756,0.00415974361295834,0.19138433106903208,0.10556632300058855,0.1673146346206854,0.011581974457812746,0.0016503560325352598,1
0.0041681699487907415,0.08985750724717723,0.2144496373423933,0.0010102193257971997,0.1964931355667192,0.001959463245408769,0.0013704054299354359,0.008480229329879397,0.004131243015555195,0.19078068819308674,0.106024864368389,0.16803757300514183,0.011583852677590397,0.0016530113041354022,1
0.0041750977593945785,0.08965467260641186,0.21459574395362946,0.001007124574156081,0.19709222077365618,0.0019714821543292396,0.001378432331296897,0.007772579592564402,0.0041348506616425106,0.19107738939787194,0.10545625702944197,0.16842555075719495,0.011603591031361004,0.001655007377048823,1
0.004174495930946651,0.08975391571368936,0.21431773107449445,0.0010058967729599797,0.19802988645843542,0.0019855485840337556,0.0013805670426761856,0.007930685567913319,0.00416000332301518,0.19129141562891738,0.10472741375253934,0.167976573781038,0.011612452495016372,0.0016534138743246676,1
0.004171603267086479,0.08923165478755189,0.2142275304005029,0.0010033443008238972,0.19770066711219836,0.0019888874291089575,0.00138033594325358,0.008526484580793,0.0041755256249455365,0.19145369149398359,0.1052071784452699,0.16765958484712165,0.011622303542267886,0.001651208225092139,1
0.00417104200777536,0.08867962077325849,0.21378199021355795,0.000998246188186497,0.19730052472532705,0.0019883780673780834,0.0013812272659601411,0.008684905539394605,0.004178410377574874,0.1922144655458085,0.10546674240011095,0.16785355364780125,0.011646522624644658,0.0016543706232215376,1
0.004167591640438319,0.08918621769067434,0.21330941795790054,0.0009986692424930948,0.19778093309972092,0.001985321935088466,0.0013762067213679474,0.008664337362147381,0.00417000519981183,0.1920446264608055,0.10516148741073418,0.16787356677287285,0.011626728782622303,0.0016548897233223817,1
0.0041644148788842535,0.08957364053805529,0.2134669155454327,0.0010025406994397643,0.19795473544751144,0.001984957891485026,0.0013728207322838363,0.008710633589117509,0.0041595672183881915,0.19130371685707193,0.10532357006665567,0.16774876401720903,0.011582786780215364,0.0016509357382499658,1
0.004167206251159686,0.08930524016128238,0.2134025254192286,0.0010008972114010442,0.19751842792924254,0.0019889240527887486,0.0013769015921390104,0.008575974870708353,0.004164063663602282,0.19182400669565058,0.10553084662460527,0.1679078150321662,0.011589108418014294,0.0016480620780107062,1
0.004170096812118876,0.08915815131214587,0.21347508818810162,0.000996333302641876,0.19735723842938,0.0019833954372274836,0.001378501774075287,0.008005343267190459,0.00416084797861662,0.1923565530093987,0.105678671578357,0.16802210032180226,0.011611435823240455,0.0016462427657036548,1
0.004176690142277103,0.08933530302134572,0.21409226367195602,0.0009977622161363856,0.19771151343333968,0.001975520814263893,0.0013749116226872491,0.00675786756540146,0.004145906631758607,0.19194509495487974,0.1060331002369874,0.16817982460523362,0.011624075458228182,0.00165016562550496,1
0.004187645150674201,0.08951289811196404,0.21425321867681568,0.00100301980729092,0.1981067631219384,0.0019835279967982617,0.0013745764453893304,0.005959203620305743,0.004150053037266812,0.19195552746784372,0.106141218982679,0.16806274627791085,0.011652442578382915,0.0016571587247401936,1
0.0041887068585758965,0.0894391505706232,0.21414906272284315,0.0010023255760344574,0.19842164443871618,0.0019985173402753092,0.0013824113560883026,0.006422976969255906,0.004171225921837516,0.19265621909979494,0.10529475419008484,0.16754354119316886,0.011674059733899305,0.0016554040288019466,1
0.004184149081202625,0.08902166820517103,0.21436046046191887,0.000996835560074178,0.19882352836284345,0.002011250739500525,0.001390585206970084,0.006819275057058298,0.004185851149799933,0.19294864188434266,0.10440613388879678,0.16751690011251644,0.011682429224860229,0.0016522910649448875,1
0.0041810928020705644,0.08867578471996442,0.21413218184842472,0.000995003705523701,0.1987248995639765,0.0020151523492288152,0.0013919847525692385,0.007483585753450533,0.00419379755694801,0.19273166464465966,0.10454721022107463,0.16759848113386325,0.011675354861138415,0.0016538060871075652,1
0.004168064973333406,0.08874171140086534,0.2135808897092539,0.0009942584216239656,0.19811600913661215,0.002002066031959849,0.00138520812964842,0.008846921069350953,0.004195652090214685,0.19252307208921865,0.10496436538998061,0.16720130190851448,0.011631244651301106,0.0016492349981224966,1
0.004158344057735226,0.08906542517850113,0.21349191409318302,0.0009944221875198514,0.19786327571053317,0.001991821525767307,0.0013790914551328078,0.008969791612732777,0.004186819225460444,0.1923813174876406,0.10513364165212387,0.167136035186489,0.011601832568016977,0.0016462680591636653,1
0.004166916635688039,0.08939035005728184,0.2135669758296883,0.0009977185227877732,0.19814564944141788,0.001995595904572706,0.0013780393344041098,0.007429408444813569,0.0041724541549790495,0.1924393804710033,0.10557883496326884,0.16747209546305686,0.011615586123491227,0.0016509946535464748,1
0.004166066625068861,0.08946070314794217,0.2133956050021814,0.0009987649531595863,0.1980423502166325,0.001993833489235877,0.0013771114335933605,0.006758364066165659,0.00416794791827346,0.1927743189718326,0.10615298675758128,0.1674406394565714,0.011621021098530982,0.0016502868632306464,1
0.004162364723994109,0.0890163306681631,0.2137020137165489,0.0009966235897941752,0.19793216285722795,0.0019886553809052875,0.0013767650683573435,0.006546096931148907,0.004175513911072669,0.19302000665312152,0.10623270226877365,0.1675700664206807,0.01163191853563348,0.0016487792745783166,1
0.004170939025067557,0.08887004221223017,0.21416874779745823,0.0009946319725454155,0.1979498828720725,0.0019913462254071163,0.001377428535579233,0.006419481753838704,0.004180263305522413,0.19275589448623984,0.10574146530296424,0.1680813842678854,0.01164677536931131,0.0016517168738777622,1
0.004168647694658805,0.0890315305535032,0.21385412304549545,0.000992233236429352,0.197461369417907,0.0019905481751523587,0.0013777875066007025,0.008029780248845018,0.004180306900896638,0.1925346424731251,0.10516092881119841,0.1679487505723051,0.011619471270237396,0.0016498800936452385,1
0.004159149837913674,0.08876228959364837,0.21346786865427447,0.000991670832824215,0.19731244566166758,0.0019885209538971767,0.001380469356058357,0.009408850895618768,0.004180434434763199,0.19257432587662962,0.10510517728405193,0.16742484009632153,0.01159869143424347,0.0016452650880875534,1
0.004164011720169875,0.08886844823674168,0.2139161018287811,0.0009918951781103488,0.1976366374173647,0.001992696388192545,0.0013805573447494084,0.008470520650495972,0.0041741731689496665,0.19228332622202093,0.10532587385805207,0.16752491716442003,0.011624343906187726,0.0016464969157637115,1
0.004169387459515121,0.08915755340169447,0.21425912305761663,0.0009933286351751943,0.19764973934367874,0.00199170526754877,0.0013783303750939102,0.007892982060282173,0.004170414475642956,0.1920293506780533,0.10525404520294226,0.16776701913380807,0.01163591846433648,0.0016511024446117185,1
0.0041630249536250075,0.08891390321118484,0.2138324901161885,0.0009952279493649736,0.19755938873162185,0.001988053709897992,0.0013786129474889222,0.00898268011657218,0.0041755453787625674,0.19212686361083003,0.10500543907557582,0.16762675135562347,0.011602832511122447,0.0016491863321414638,1
0.0041553090357206385,0.08878873888540947,0.21336799991646643,0.0009946212104843723,0.1979160829690833,0.0019898800020251425,0.0013795666555686498,0.009186742373869756,0.004167060369060634,0.19226008869932223,0.10503403496626554,0.16752543022846245,0.01158914807483046,0.0016452966134309563,1
0.004151555838647425,0.08909648254697795,0.21337452266875018,0.0009929456104695198,0.1980259552205886,0.0019929282716517178,0.0013790307248061448,0.008231162545612038,0.0041590140056146935,0.19243861960923284,0.10535563406262799,0.1675450774095808,0.011609772330426963,0.0016472991550130517,1
0.004143380106955387,0.08868821904258732,0.21328313250521005,0.0009906702135860771,0.1976879897829367,0.001995460675027436,0.001380637953652251,0.008963882944813754,0.004181063792801954,0.1927032256112431,0.10545519564788372,0.16727597532935426,0.011604598301121346,0.0016465680928266695,1
0.004133004591381894,0.08798003745819165,0.21294352460001223,0.000987092080630947,0.19734955440025093,0.001998277436494581,0.0013837373245317822,0.01057311341994735,0.00420019428900731,0.19287596898453915,0.10537096062813137,0.16697552953123826,0.011590128887723098,0.0016388763679192168,1
0.004130863791495777,0.088185478873329,0.21273244620022905,0.000986586263809703,0.19732126977527548,0.001996061413870312,0.0013853880462245248,0.01056433841074627,0.004187730684089,0.19287869659410808,0.10539545306767238,0.1670036419007173,0.011594804138475197,0.0016372408399578807,1
0.004137332129607094,0.0887279249349425,0.21287430502923085,0.0009915454314655713,0.19729087861052516,0.001992103318166086,0.0013831462147296599,0.009750161263364162,0.0041732045401487354,0.19280179241801318,0.1053313117986127,0.16731888849864807,0.01158645602044343,0.0016409497921027179,1
0.004141140449086136,0.08877945177001735,0.21317863678059748,0.0009927707669668076,0.1971383060873036,0.0019887256637533225,0.001379212928055084,0.00967416386964988,0.004177853487100368,0.19269985222674588,0.10513050964093909,0.16751574958028834,0.011564581125075066,0.0016390456244215234,1
0.004142704292873655,0.08834136819867329,0.21352037012286326,0.0009903527905156346,0.19726342109135603,0.001987112328947285,0.001381248339673219,0.009916412651239865,0.004183466086361406,0.1927639415867712,0.10503072306480171,0.167264716101394,0.011576162133638369,0.0016380012108909094,1
0.00414533186182862,0.08800649093361579,0.2138775324530202,0.0009904946879696584,0.19789763516076578,0.0019932239815652845,0.0013855860183590372,0.00921745763196289,0.004180992656428289,0.19298512271244042,0.10465650845390756,0.16741447650176433,0.011606979125814456,0.001642167820557526,1
0.004142418455336155,0.08828004112823422,0.21389195842499786,0.0009911874570372303,0.19801941629919223,0.0019978670915768936,0.0013847153020102568,0.009294393417043936,0.004181863481898135,0.19277317289998805,0.1041932069923457,0.16760524830637893,0.011603650633764314,0.0016408601101959106,1
0.004130513159265267,0.0887000495838632,0.21331818524373283,0.0009906676900873928,0.19758113449283107,0.001989885966102528,0.0013802054961200851,0.010651303488741097,0.004192485677690362,0.19227627623680388,0.10452978865537163,0.1670566685121441,0.011568428905714929,0.0016344068915315813,1
0.004126820506704315,0.0886832162858974,0.2130988662131141,0.0009908672084500967,0.19745962479869256,0.001985397033615523,0.0013802682476097043,0.011070504864823296,0.004193165673820108,0.1925056310386294,0.10471260233647348,0.16660136356514532,0.011557185120560537,0.001634487106463936,1
0.004135144621419215,0.08838833023002952,0.2135897153632434,0.0009911548623236335,0.1979997975125619,0.0019987982140110354,0.0013877945779754354,0.010445643303085053,0.0041812278994497075,0.19275533464562458,0.10423148058985511,0.16666875226325115,0.011587578440408686,0.0016392474767614428,1
0.004140666106646619,0.0887324926088665,0.21384180789888635,0.0009923246880431588,0.19800646882138456,0.0020050219143803267,0.0013904880620666316,0.010310049512774193,0.0041771498312124945,0.1920835033081437,0.10413082459385352,0.16694954732577416,0.011597361890198773,0.0016422934377688695,1
0.004139137415817707,0.0894951691339905,0.21340925038050387,0.0009950698535303236,0.1974066934364291,0.001990160976322875,0.0013826270579174946,0.009898680121198149,0.00417823220851444,0.1918088273424559,0.10495479690681644,0.1671322245794588,0.01156713985287852,0.0016419907341658116,1
0.004138230340207345,0.08960909000413841,0.21341011086334788,0.0009950089885965565,0.19736821988077724,0.001982777491168482,0.0013744255006546274,0.00891674683576992,0.004163543148367704,0.19201511776135308,0.10556771855261043,0.16726891860096602,0.01155135385998502,0.0016387381720571457,1
0.004140559695015506,0.08922856827097526,0.21376071312310765,0.0009944843124680255,0.1977546745602226,0.001989956869429902,0.001376067068897698,0.008641445274752503,0.0041537703669043535,0.19214690250154237,0.10538490947337657,0.16722221708174648,0.011568759686961017,0.0016369717146001584,1
0.004138884654207515,0.0890396140834048,0.21339401261388338,0.0009956232766344518,0.19754524668838247,0.0019933975799665184,0.0013815697888406395,0.009387694209656424,0.0041687867824812125,0.1923858478747744,0.10525891967190151,0.1670898294825212,0.011580389640972815,0.001640183652372724,1
0.004134380529751758,0.08902250370510495,0.21278972668844418,0.0009939258469831495,0.19742077767178592,0.0019950726318276107,0.0013818117441717446,0.009963213290369146,0.004178449686681034,0.19254210767858077,0.1052561677504851,0.1671166925796051,0.011566496465765661,0.0016386737304437383,1
0.004134548907948798,0.08880599005542936,0.21306159734202693,0.0009933462357011042,0.19832258424814792,0.002003208739572421,0.0013815632493967697,0.009906122427075652,0.00417237886129993,0.19223821832000174,0.10469887237315594,0.167091146133707,0.011556341363600108,0.0016340817429362933,1
0.004140885633236288,0.08914854058156337,0.2136842149287397,0.0009982736376363017,0.19913316769063938,0.0020094629105239076,0.001383453140263888,0.009424377063493243,0.00417155315449144,0.19182960479528388,0.10404816974568667,0.1668221625554471,0.011569550585727725,0.001636583577267061,1
0.0041466764884205256,0.09023828531625935,0.21358303323498692,0.0010023039129407583,0.19898006040535524,0.0020016702025302427,0.0013812607176200025,0.009053992869737527,0.004186772453432172,0.1917697109136214,0.10401568336918293,0.16643557373921367,0.011567235203789243,0.001637741172909956,1
0.004145282624074611,0.09043782239314324,0.2132161004651789,0.0010001040376835246,0.198452601798892,0.0019906640765648543,0.001376479325080467,0.00910716160526176,0.004190327355293443,0.1921232162442711,0.10428899693084029,0.16648789575216943,0.0115483683060369,0.0016349790855096308,1
0.0041352680779255845,0.08951053790361718,0.21306589981278673,0.0009938240514278125,0.197617622610413,0.0019908356108917064,0.0013768183529667508,0.010418378258084528,0.004181541406928783,0.19245633351469227,0.10446159995477546,0.16660943160878644,0.011546940096533578,0.0016349687401701121,1
0.004128138399647494,0.08910930845077779,0.21289552520951593,0.0009914909128209148,0.1972069128794811,0.0019948206153808106,0.0013800129057788503,0.011292832578698177,0.004182524041448235,0.1924448496036001,0.10474604212370363,0.1664456659947037,0.011546586540492168,0.0016352897439509963,1
0.004137557730733777,0.08999946618125063,0.21328331146904075,0.0009976258541273847,0.1980007370749715,0.0019917613413440467,0.0013799798567755283,0.009180163262512532,0.004175314852579292,0.19232593996050554,0.10467917681160237,0.16665407301050708,0.011557428489533918,0.0016374641045156433,1
0.0041541428206277155,0.09070641335672643,0.2141728823398368,0.0010036446155227705,0.19894498561482615,0.001993358405273594,0.0013796642256616893,0.006193531550991011,0.004156794806848014,0.19237186268984033,0.10435508627329196,0.16733792792684654,0.011587597433150883,0.001642107940556103,1
0.004158324664829006,0.09021308526750933,0.21435143785605795,0.0010002979542731874,0.1989961612877429,0.0020026924013003084,0.001383677260778732,0.006572263538824892,0.004162814728906077,0.19239814344198014,0.10396377834029262,0.16756869346538739,0.011585521714177257,0.0016431080779398778,1
0.004156808640345664,0.08936445099657954,0.21393566229137387,0.0009962031206209735,0.19852757645089833,0.002005701299383133,0.0013890013590686118,0.008853168944927426,0.004184316366118657,0.19224932856650065,0.10380561384401459,0.16731938286824724,0.01157018280387049,0.0016426024480505617,1
0.004157031932842471,0.0897639742054779,0.21402238942898041,0.0009979698749465837,0.19817071293730534,0.0020002389776428934,0.0013867855049920065,0.009503579797528404,0.004180937690671799,0.19186820833528942,0.10372181451137974,0.16701128747011829,0.011571615452070742,0.0016434538807537909,1
0.004153892132941903,0.09086991027334741,0.21414337100396696,0.0009989299833017772,0.19807507358874588,0.001994162938745687,0.0013787406873149199,0.00918360982207032,0.004170142489302423,0.191582889463571,0.1037137979826112,0.16654969457907445,0.0115435423564377,0.0016422426985684487,1
0.00415330867411411,0.0910764623965001,0.2136252117554923,0.000998790652970879,0.1978092783963112,0.0019897973269864203,0.0013751947899506365,0.009515120683083531,0.004176522485701687,0.19141581037094077,0.1042609028828425,0.16645018499797581,0.011510854772179918,0.0016425598149499272,1
0.004153886641717063,0.09077218298864184,0.21316324427949623,0.0009984705971000812,0.19718456952938251,0.0019826714969579397,0.0013728356053739747,0.0098560150077167,0.004169913441446377,0.19134724023940733,0.10505729699896023,0.16678491150697297,0.011514685388382788,0.0016420762784438386,1
0.004157689733655613,0.09115392432642642,0.21348485387060442,0.0010012313551784249,0.19762445193710462,0.0019859078932546125,0.0013713194236869522,0.008782752469999716,0.004154763393130242,0.19161392413383319,0.10475927470982589,0.1667373148734627,0.011533934760095958,0.0016386571197413216,1
0.004164895542565157,0.09147164731980842,0.21407690903292384,0.0010056005103888895,0.19862173564580318,0.0020017296335024443,0.001379054829605388,0.008012646888775971,0.004162391502773479,0.19159305771234664,0.10382030214101738,0.1665043136332542,0.011545182665221747,0.0016405329420131152,1
0.004165042611841886,0.09112794184282602,0.2140180814671657,0.0010028487961611747,0.19825072676950356,0.002003381531667983,0.001383935066913159,0.00845037465029272,0.004172492963121149,0.191540408628182,0.1039028218564897,0.1667925202029224,0.011544625107891926,0.0016447985050205985,1
0.004161214953293721,0.09067512705761545,0.21363156583795448,0.000997759334566589,0.1976567135739172,0.0019853861359265435,0.001376326891261614,0.008570229959495409,0.004164262313593799,0.19173594821950699,0.10473632190313792,0.1671287567890067,0.011535919714377322,0.0016444673163462657,1
0.004163516038064889,0.09085601836085046,0.2137515429239558,0.0010017103246358898,0.19770484846141098,0.0019814788411367345,0.0013749096848317463,0.008352294253658481,0.004158555229726572,0.19182309250594773,0.10465111030638358,0.16700297486059448,0.011536121816270535,0.0016418263925320488,1
0.004163721312676741,0.09113864718313784,0.21405205704644417,0.0010040757690372333,0.19773669279311445,0.001994488549537018,0.0013817458031898594,0.008301574723235958,0.004162924410198014,0.19176515204450326,0.10437268801184392,0.16673960770280294,0.011544845954599854,0.001641778695678733,1
0.00415683254452635,0.09101873646057444,0.21372790136717024,0.000997938389367957,0.19747172697261556,0.0019982342534868914,0.0013808762783331084,0.008660664781591769,0.004166747863399652,0.1917184924294882,0.10483853465218122,0.16667643740407012,0.01154377366990491,0.001643102933289575,1
0.004152813131462647,0.09090248389786262,0.21319931655393753,0.0009983601265876121,0.19715280371260946,0.0019904548025927,0.0013744524528319835,0.009358334584481005,0.0041699196563624065,0.1917026457073769,0.10492972675626969,0.16690033589004807,0.011524747995775717,0.0016436047318016363,1
0.004151105998542936,0.09112981586545107,0.21302491328188658,0.00100241283712967,0.19702070136551536,0.0019855942505712402,0.0013703747365220347,0.00991587910684213,0.004161572726725555,0.19150580186860475,0.10464484217239264,0.1669442415473593,0.011502501757690861,0.0016402424847656706,1
0.004156820577648871,0.09118829514811815,0.21367523096688396,0.0010027206551704124,0.19752299989655162,0.0019923755826169853,0.0013750840933423642,0.009659917105185845,0.004159016646202123,0.1913592051570922,0.1038079783870818,0.16693647248771587,0.011524213519604372,0.0016396697767853913,1
0.0041708947682088425,0.09077130077564564,0.21492161391878026,0.0010047244652164635,0.1983682956996496,0.002003531820544647,0.001383667885562678,0.008846065954875922,0.004178700266624851,0.1916857064000856,0.10209837475334378,0.16735264049017876,0.01156874389512511,0.0016457389061577132,1
0.004179520739997384,0.09077692057965235,0.21546302255994457,0.0010094488759203734,0.19890352296937402,0.0020048685862692093,0.0013862636177470965,0.007985706336856198,0.004193381698218247,0.19229032371146085,0.10090308329338574,0.16767067601765978,0.011584284996340276,0.001648976017173571,1
0.004169987349119821,0.0910669722876837,0.21472976944547556,0.001010881544461278,0.19907213070491583,0.002002634934374757,0.0013846657758436879,0.008564094954847326,0.004196206228478044,0.1926674227405535,0.10073527107474367,0.1671823412446529,0.011574175531514519,0.00164344618333523,1
0.004159699310720864,0.09063480335860191,0.21409182033023064,0.0010052915759879264,0.19887295434933758,0.002009575457327101,0.0013854301311725238,0.009954021791276657,0.00420234021926537,0.1929219035456301,0.10066737107850827,0.16689301305988366,0.011562571295357848,0.001639204496699661,1
0.004167027649472491,0.09016797838073462,0.2144335689406277,0.001000990770792938,0.19889076291189275,0.0020161907240317145,0.001388786300171036,0.009382461203074973,0.004211142896697483,0.1931276525311704,0.10058009435722597,0.16742245532932826,0.011567704956027105,0.0016431830487523673,1
0.004166589341472905,0.09028021759225605,0.21451094809000468,0.0010019773600177073,0.19887123444991023,0.0020130403543022596,0.0013907042465580014,0.009237414196654707,0.004214177209252608,0.19319734336151878,0.10050361741917166,0.16739931772140917,0.011567972808616713,0.0016454458488544229,1
0.004150718061177506,0.09050162044413401,0.21399240764443245,0.0010023535782332526,0.19870794754885915,0.00201039403637328,0.001390505413213531,0.010616754814783455,0.004202479172692195,0.19301684183402593,0.10009246611883818,0.16712050404493412,0.011554374620188847,0.0016406326681140198,1
0.004150361671299363,0.09033889285244168,0.21420784454098957,0.0010016460244634288,0.1986951068079595,0.0020115388474406656,0.0013916851280974822,0.010255982759758791,0.004190231231119329,0.19281236333465757,0.10017738529349919,0.1675559007830979,0.011570703360531702,0.00164035736464399,1
0.004169805599784777,0.09019717537450256,0.21514558149495705,0.0010046207269988543,0.1988946396595235,0.0020105855876920964,0.0013936628658232373,0.008520552225881528,0.004201098822849063,0.19276130080540688,0.10043174915482245,0.1680093096977745,0.011612928900828275,0.0016469890831550013,1
0.00417175237427955,0.09042674335122927,0.21521274658492112,0.0010061827115057625,0.19895673145928663,0.002007323897115394,0.0013916215794780198,0.009042091816311323,0.004213752538881047,0.19290332196725804,0.09973066873630512,0.16768219850006683,0.011607361235941083,0.001647503247420757,1
0.004157755939750298,0.09026951855122418,0.21462779444189775,0.0010032769139384089,0.19875821158365334,0.002004706253047972,0.0013870887677131134,0.01056153837508892,0.0042110326264782165,0.19292363172694976,0.0994923147292449,0.16738768617048805,0.011573162041776898,0.001642281878748118,1
0.004161604213968311,0.09007244986452156,0.21482644645990662,0.0010038896747037356,0.19871517658833507,0.002006010640647978,0.001387313071546701,0.010275784073965922,0.004211149451483126,0.19285569735289865,0.09975307152236583,0.1675008231745705,0.011586504492400387,0.0016440794186857216,1
0.0041761198538299085,0.09045459336296059,0.21543662542349484,0.0010067699815975077,0.1990587493004997,0.002006948485823457,0.0013886874543373162,0.008905355316997769,0.004205939461831338,0.19292947839600672,0.09962513583146021,0.16754646095521647,0.011610772771797985,0.0016483634041459044,1
0.00417919175063374,0.09091940245297635,0.21549747469059105,0.0010087618957360946,0.19943104779031554,0.002004886806590584,0.001386296699451155,0.007864814177312936,0.004196791860193566,0.19280910564128134,0.09971781671356399,0.16772512403088244,0.011609840278863658,0.001649445211607418,1
0.0041781892342316,0.09094135054445032,0.21518345646522943,0.0010110073357543323,0.1992691806097967,0.0020006181475616756,0.0013843681965272023,0.007549982498059377,0.00419575152541587,0.19291979675928467,0.10020892804466124,0.16791000374287368,0.011600223971451667,0.00164714292470222,1
0.004180129432539931,0.09073277996264188,0.2152786083444792,0.0010103848671442362,0.19910545141312666,0.002001981525431522,0.0013839594333630077,0.0074841927165158525,0.004203221727362456,0.19340595013332124,0.1000520360052031,0.16790696502433602,0.01160934984632129,0.0016449895682136145,1
0.004176462878847778,0.09065351112250407,0.21551935715755688,0.0010076379012311095,0.19918492123560338,0.0020064531107776384,0.001385986138456202,0.007946995361325968,0.004211087645193521,0.19346646668928694,0.09948544539458964,0.16769089996875639,0.011619473553973235,0.0016453018418971645,1
0.004173854245623993,0.09082591626682533,0.21548619621179937,0.0010091930785283772,0.19930470924620716,0.002005820723276891,0.0013901582913557577,0.008613408914188471,0.004209760408002147,0.19295214932952282,0.09934078762225917,0.16742736027408148,0.011614503106113932,0.0016461822822152778,1
0.004180070076506514,0.09103339399640598,0.2155079023618837,0.0010119409441661823,0.1993666885658241,0.002002840752114003,0.001393177855260433,0.008683976379051616,0.004199843775769353,0.1926737327256949,0.09924726682529636,0.1674481722490344,0.01160486897759212,0.0016461245154003727,1
0.004182105299927798,0.0910274077709444,0.2157801976841675,0.0010104048524688372,0.19929859209145057,0.0020081521383712524,0.001397773761388962,0.00876885568704154,0.004205904496367474,0.19271041820972717,0.09869445223486054,0.16765974385976737,0.01161031450894488,0.0016456774045715496,1
0.004176601740819064,0.09070252150225191,0.21589743482384877,0.0010090830384668426,0.19942509042376322,0.0020182564986385232,0.001403237153973416,0.009446512111352444,0.004225474843057006,0.19275353326833938,0.09787603009342646,0.16780443598903685,0.01161637699033574,0.0016454115226901482,1
0.0041618687218687766,0.0904132103620359,0.21523520630671372,0.001007869468007926,0.19915095280170153,0.002010475501677024,0.0013976129029810538,0.010532845082223257,0.004230509894965461,0.19317043892595973,0.09794546618264299,0.167511739163249,0.01158839365977551,0.0016434110261981114,1
0.004151656205066239,0.09038512369107696,0.21450827094246774,0.0010042953044700886,0.19861041569088345,0.001997198573793223,0.0013879982481701163,0.01115792929762325,0.004218736520794531,0.19332835051109185,0.09880284217083317,0.16724462248042266,0.01156073990060119,0.0016418204627053335,1
0.004157524797226173,0.09027038558485595,0.21484759419831131,0.0010052447934830759,0.19884342884543918,0.0020068486284529484,0.0013914235774902268,0.01020652392993458,0.004205358648605112,0.19305956096875032,0.09917675705758836,0.16761260338260953,0.011575604723472785,0.0016411408637802092,1
0.0041718579861510265,0.09014248348161967,0.21596193802991656,0.0010096543617435965,0.19971566780487898,0.0020201034884897123,0.0014000089739930153,0.008542022027024984,0.004210162081669255,0.19299933177765147,0.09865214438723542,0.16792627897637366,0.01160533745698298,0.0016430091662695823,1
0.00417537040905885,0.09039353205043835,0.21628037102922792,0.0010119133894717594,0.20000665464672002,0.0020154225477225125,0.0013989205359312556,0.008179343626214494,0.004218162508515327,0.192943830775581,0.09824265693399568,0.16788189044765311,0.011605039937046126,0.0016468911624234108,1
0.004167350312610335,0.09079738824315238,0.21565845500021844,0.0010126326383081527,0.1999730353411463,0.0020135339098447066,0.0013943291846416877,0.008091079608957146,0.0042084381406415385,0.1928095824128425,0.09874545107379931,0.16788075667872016,0.011600340967040046,0.0016476264880773968,1
0.004160558315075302,0.09073261692001815,0.2151334158475856,0.0010111389051678337,0.200059847165888,0.0020150839790415848,0.0013912871816496035,0.008229140549276205,0.004209595480713608,0.19291454842332295,0.09908102176746487,0.16781218211251436,0.011605248849884372,0.001644314502397331,1
0.00415544486014266,0.09029001124712432,0.21496898964146327,0.0010069415862914218,0.19978802060803802,0.002006967294329769,0.0013885466972871042,0.00918932978483722,0.004216027028046127,0.19319877750082134,0.09898064797437353,0.167568625303429,0.011600050603532449,0.0016416198702834603,1
0.00415791733284192,0.0904541848555138,0.21523051384872652,0.0010073873125133466,0.19951446014042945,0.002003598591305867,0.0013886811828021154,0.009052917000234724,0.004211221798879311,0.19313426564513175,0.09883530517867872,0.16775709818668444,0.011609412797147447,0.0016430361291105457,1
0.004165094040357096,0.0906127237261579,0.21584045625260723,0.0010095995984934292,0.1996323668673077,0.00200911829938048,0.0013910248333248553,0.00833026704381548,0.00421289262975603,0.1929392649713698,0.09854330806758335,0.16804059521594295,0.011628330054577541,0.0016449583993261923,1
0.004171346609687197,0.09027213795771356,0.21596309612246506,0.0010082890517784722,0.19986551693942436,0.002009623893488076,0.0013927941244295525,0.008554308258199458,0.004223056706034533,0.19298781808818902,0.09845569147845142,0.16782891867632274,0.011622029741128722,0.001645372352687822,1
0.004168602564697208,0.09028926663532785,0.21510465016611058,0.0010054313216161532,0.19959333362072787,0.002013662352617972,0.0013930560005763655,0.009432834151177934,0.004225416215706334,0.19338139210499306,0.09874993604651658,0.16739270058677846,0.01160612611570892,0.0016435921174444874,1
0.004157972331401764,0.09050808467782977,0.2141725304797801,0.001001151244027847,0.19940976087673107,0.0020196912338339124,0.001394999862603034,0.010311701804515072,0.004224363222693869,0.19365348024571025,0.09886197342930894,0.1670321132189518,0.011609908215050556,0.001642269157561996,1
0.004157792202128119,0.09018029473901107,0.2142004268065189,0.0009993898791952156,0.19967231268407604,0.0020136500924090787,0.0013949895778014576,0.010529092509613772,0.004227497667514504,0.19351340444239848,0.09886738741877871,0.16698851952407331,0.011611854819731336,0.0016433876367499725,1
0.004171329844844466,0.09015580609995867,0.21504625608083958,0.0010023301477998917,0.19942897582748614,0.0020041170097991083,0.001389399711344756,0.009351987021892355,0.0042259448389476055,0.1935964650041754,0.09903023207112098,0.16733564647123125,0.011616365934669411,0.0016451439358902726,1
0.004184749081790165,0.09044905598059479,0.2157668730709482,0.001003351419230129,0.1993864580282373,0.002004628744378823,0.0013876991770553064,0.007975153308848794,0.004233617322546603,0.19402850529238533,0.09859122595458306,0.167691872565203,0.01164877261778995,0.001648037436408729,1
0.00417604495926001,0.09036968127443788,0.2156804159133427,0.001001885119166962,0.20007042256724436,0.002007347080337583,0.001389580938246005,0.007837513564482548,0.004237828454538984,0.19429161369310027,0.09810126707036673,0.1675378849621095,0.011651340445793468,0.0016471739575727115,1
0.004163089721194681,0.09061788088676734,0.21473131830790587,0.0010019096299139513,0.20050671458648178,0.00200913469597356,0.0013904773833509501,0.008415955856760455,0.004231678798323801,0.19424205990822382,0.09828468912069052,0.1671317309357845,0.011630042378136805,0.0016433177904919293,1
0.004159980643162592,0.09071402769839589,0.21425956153116618,0.0010000662836737186,0.20017615115027848,0.002011919494468898,0.001389378730176391,0.008860803922701737,0.004231277684723471,0.19418828395132387,0.09859722216475564,0.16712837464028155,0.011638680919423916,0.001644271185467592,1
0.004154979784792138,0.08985666152424242,0.21461495827615984,0.0009968227033864633,0.1999263703919917,0.0020117065253330213,0.0013885249640147395,0.009231507066513305,0.0042270225010845345,0.19400251219467618,0.0989827427233484,0.1673219308337334,0.011638760658040967,0.0016454998526828771,1
0.004155147074478514,0.0894496351505782,0.2147012284716669,0.0009984352845166487,0.1999246215576426,0.0020108033292228983,0.0013888102542394308,0.009437707459325203,0.004218505112034659,0.193646211980946,0.0992523306150754,0.16756401904010243,0.011609503562931663,0.0016430411072394476,1
0.004162208739462329,0.09006231358387388,0.2149057117082732,0.0009998226508482113,0.19958133575886008,0.0020097403676004534,0.0013873413899197103,0.00898416987365567,0.0042151139025530335,0.1934905419384285,0.0990603392118014,0.16789349230798423,0.011602787360705753,0.0016450812060335629,1
0.0041525784233151855,0.09012343238226128,0.21488607280912153,0.0009968845988874975,0.1990904584400397,0.0020007151548205168,0.001384206928934343,0.009262417906015131,0.004218771579392731,0.1933504742656301,0.09931224673732035,0.16797892149154917,0.01159795358496114,0.0016448656977512564,1
0.00413025847280146,0.08961847838306523,0.21389529221556863,0.0009930776406539912,0.19851166826062167,0.0019986099213554587,0.001383853459029304,0.011147307995582494,0.00422149248243498,0.19334969752076206,0.09999819432941687,0.16754689959348143,0.011569372738006447,0.001635796987219994,1
0.0041224484096043556,0.08971927465460316,0.21335089144811104,0.0009925921831499106,0.19824600201451156,0.0020013687065885046,0.0013879498506506188,0.012165880580712668,0.00421530544572694,0.19350286345726714,0.09983137532857336,0.1672773766984731,0.011555193623550135,0.001631477598477549,1
0.004129379219247431,0.0900543029000831,0.2140531765904318,0.0009936392601519641,0.19836482415044948,0.001997945042168912,0.0013883560771164344,0.01129348686378774,0.004212216916860256,0.19370698797244784,0.09931990822585537,0.16728529170629053,0.011564781906224767,0.001635703168884281,1
0.004137721355027335,0.08965854308391455,0.2146251267823254,0.0009925345210172816,0.19868656576556143,0.0019996173865048294,0.0013888812617516423,0.010718255991827538,0.004209792974599124,0.19352570650830883,0.0994025125053643,0.16743492136832264,0.011579601104330775,0.0016402193911441492,1
0.004143966771852726,0.08936427079299665,0.21447112237526889,0.0009924741974745184,0.1990607005209279,0.0020070045515101337,0.0013926623246147845,0.01080466396511507,0.004207269083483534,0.19318174466626534,0.0994642885517355,0.16767684705692332,0.01159080563143951,0.0016421795103920295,1
0.004146719333088217,0.08971894708987727,0.2143054615432684,0.0009961021853921598,0.19936130271072797,0.0020042172601743733,0.0013906236730263292,0.009925303265599175,0.0042145187813702675,0.19350507225402971,0.099377143999044,0.16781481592305805,0.011599037808915186,0.0016407341724287894,1
